File: XPS/241019_191x195-2.1.csv
C1s Scan
	Characteristic Energy eV	1486.68	Acquisition Time s	0.05
KE_C1s Scan	BE_C1s Scan	CPS_C1s Scan	C-C/C-H_1_C1s Scan	C-O_2_C1s Scan	C=O_3_C1s Scan	O-C=O_4_C1s Scan	Background_C1s Scan	Envelope_C1s Scan	Normalised_Residual_C1s Scan	Residual_C1s Scan
1188.97	297.71	1998.71	1998.71	1998.71	1998.71	1998.71	1998.71	1998.71	0	0
1189.17	297.51	2196.02	2196.02	2196.02	2196.02	2196.02	2196.02	2196.02	0	0
1189.37	297.31	1946.88	1946.88	1946.88	1946.88	1946.88	1946.88	1946.88	0	0
1189.57	297.11	1557.3	1557.3	1557.3	1557.3	1557.3	1557.3	1557.3	0	0
1189.77	296.91	1975.15	1975.15	1975.15	1975.15	1975.15	1975.15	1975.15	0	0
1189.97	296.71	1956.39	1956.39	1956.39	1956.39	1956.39	1956.39	1956.39	0	0
1190.17	296.51	1774.12	1774.12	1774.12	1774.12	1774.12	1774.12	1774.12	0	0
1190.37	296.31	1769.97	1769.97	1769.97	1769.97	1769.97	1769.97	1769.97	0	0
1190.57	296.11	1351.65	1351.65	1351.65	1351.65	1351.65	1351.65	1351.65	0	0
1190.77	295.91	1525.17	1525.17	1525.17	1525.17	1525.17	1525.17	1525.17	0	0
1190.97	295.71	1699.82	1699.82	1699.82	1699.82	1699.82	1699.82	1699.82	0	0
1191.17	295.51	1585.74	1585.74	1585.74	1585.74	1585.74	1585.74	1585.74	0	0
1191.37	295.31	1295.4	1295.4	1295.4	1295.4	1295.4	1295.4	1295.4	0	0
1191.57	295.11	1299.87	1299.87	1299.87	1299.87	1299.87	1299.87	1299.87	0	0
1191.77	294.91	1546.48	1546.48	1546.48	1546.48	1546.48	1546.48	1546.48	0	0
1191.97	294.71	1091.35	1091.35	1091.35	1091.35	1091.35	1091.35	1091.35	0	0
1192.17	294.51	1321.29	1321.29	1321.29	1321.29	1321.29	1321.29	1321.29	0	0
1192.37	294.31	968.618	968.618	968.618	968.618	968.618	968.618	968.618	0	0
1192.57	294.11	861.074	861.074	861.074	861.074	861.074	861.074	861.074	0	0
1192.77	293.91	848.11	848.11	848.11	848.11	848.11	848.11	848.11	0	0
1192.97	293.71	707.178	707.178	707.178	707.178	707.178	707.178	707.178	0	0
1193.17	293.51	779.398	779.398	779.398	779.398	779.398	779.398	779.398	0	0
1193.37	293.31	569.256	569.256	569.256	569.256	569.256	569.256	569.256	0	0
1193.57	293.11	588.17	588.17	588.17	588.17	588.17	588.17	588.17	0	0
1193.77	292.91	483.246	483.246	483.246	483.246	483.247	483.246	483.247	0	0
1193.97	292.71	594.158	594.158	594.158	594.158	594.161	594.158	594.161	0	0
1194.17	292.51	526.856	526.856	526.856	526.856	526.866	526.856	526.866	0	0
1194.37	292.31	439.46	439.46	439.46	439.46	439.489	439.46	439.489	0	0
1194.57	292.11	501.362	501.362	501.362	501.363	501.445	501.362	501.445	0	0
1194.77	291.91	380.732	380.732	380.732	380.734	380.954	380.732	380.956	0	0
1194.97	291.71	427.324	427.324	427.324	427.33	427.889	427.324	427.895	0	0
1195.17	291.51	388.934	388.934	388.934	388.953	390.299	388.934	390.317	0	0
1195.37	291.31	436.826	436.826	436.826	436.881	439.954	436.826	440.009	0	0
1195.57	291.11	366.406	366.406	366.406	366.56	373.24	366.406	373.394	0	0
1195.77	290.91	543.552	440.16	440.16	440.568	454.32	440.16	454.729	-0.851907	-4.44117
1195.97	290.71	411.504	440.16	440.161	441.189	467.975	440.16	469.005	0.63383	2.87504
1196.17	290.51	298.988	440.162	440.163	442.621	491.934	440.162	494.394	2.52695	9.77032
1196.37	290.31	578.2	440.163	440.17	445.739	531.372	440.163	536.954	-0.383557	-2.06231
1196.57	290.11	596.458	440.166	440.186	452.21	592.146	440.166	604.211	0.0709821	0.387636
1196.77	289.91	850.758	440.171	440.235	464.854	678.604	440.171	703.352	-1.13005	-7.37031
1196.97	289.71	808.99	440.179	440.368	488.129	790.816	440.179	838.956	0.235582	1.4983
1197.17	289.51	1154.56	440.19	440.726	528.43	921.04	440.19	1009.82	-0.952532	-7.23724
1197.37	289.31	1055.68	440.2	441.64	593.842	1051.39	440.2	1206.47	1.03777	7.5397
1197.57	289.11	1231.28	440.213	443.88	693.045	1155.51	440.213	1412	1.15163	9.036
1197.77	288.91	1542.71	440.235	449.09	831.697	1206.92	440.235	1607.24	0.367336	3.2262
1197.97	288.71	2035.88	440.261	460.547	1007.81	1191.23	440.261	1779.06	-1.27274	-12.841
1198.17	288.51	2089.2	440.29	484.522	1206.62	1113.03	440.29	1923.59	-0.810171	-8.28041
1198.37	288.31	1948.71	440.319	531.927	1398.06	993.561	440.318	2042.91	0.477144	4.70987
1198.57	288.11	1920.57	440.351	620.211	1541.09	860.398	440.349	2141.01	1.12475	11.0219
1198.77	287.91	2031.96	440.398	774.966	1598.07	736.855	440.379	2229.15	0.978172	9.85957
1198.97	287.71	2250.1	440.523	1029.48	1552.96	636.091	440.412	2337.82	0.413486	4.38578
1199.17	287.51	2489.1	441.043	1420.77	1418.86	561.784	440.448	2521.12	0.143492	1.60079
1199.37	287.31	2927.08	443.353	1977.37	1231.27	511.42	440.492	2841.93	-0.351921	-4.25743
1199.57	287.11	3796.46	452.874	2698.75	1031.42	479.749	440.547	3341.15	-1.65234	-22.7654
1199.77	286.91	4433.88	488.207	3534.38	851.602	461.174	440.611	4013.53	-1.41158	-21.0175
1199.97	286.71	4539.94	605.426	4368.66	708.316	450.913	440.687	4811.25	0.900382	13.5655
1200.17	286.51	5218.42	951.953	5033.09	604.649	445.599	440.776	5712.96	1.53079	24.727
1200.37	286.31	6724.18	1861.69	5357.07	535.541	443.044	440.886	6874.7	0.410438	7.52579
1200.57	286.11	8712.86	3970.73	5250.32	492.737	441.945	441.03	8832.64	0.28694	5.98903
1200.77	285.91	13337.9	8245.42	4744.28	468.058	441.608	441.237	12575.7	-1.4758	-38.1115
1200.97	285.71	19007.1	15679.6	3976.31	454.74	441.689	441.547	19227.7	0.357819	11.0308
1201.17	285.51	29278.2	26388.6	3123.01	448.183	442.079	442.027	29075.8	-0.264497	-10.1199
1201.37	285.31	39655.6	38301.4	2333.13	445.426	442.72	442.702	40194.5	0.605172	26.9474
1201.57	285.11	47540	46869.7	1690.21	444.686	443.549	443.543	48117.6	0.592306	28.8776
1201.77	284.91	48310.6	47627.5	1216.91	444.894	444.439	444.437	48400.5	0.0914138	4.49281
1201.97	284.71	41786	40137.5	896.515	445.404	445.231	445.23	40588.9	-1.30946	-59.8541
1202.17	284.51	28404.4	28426.8	694.952	445.859	445.797	445.797	28676	0.360395	13.5818
1202.37	284.31	17188.7	17294.3	576.718	446.173	446.151	446.151	17424.9	0.4029	11.8115
1202.57	284.11	8895.64	9270.49	511.244	446.35	446.343	446.343	9335.4	1.04258	21.9878
1202.77	283.91	4662.56	4520.94	477.035	446.437	446.435	446.435	4551.54	-0.363554	-5.55093
1202.97	283.71	3062.46	2119.34	460.174	446.49	446.489	446.489	2133.02	-3.75552	-46.4719
1203.17	283.51	2017.5	1060.13	452.329	446.526	446.525	446.525	1065.94	-4.73715	-47.5782
1203.37	283.31	1470.88	648.102	448.89	446.546	446.546	446.546	650.447	-4.78342	-41.0216
1203.57	283.11	1171.32	505.904	447.46	446.56	446.56	446.56	506.804	-4.34162	-33.2257
1203.77	282.91	941.282	462.234	446.898	446.57	446.57	446.57	462.561	-3.48905	-23.936
1203.97	282.71	719.544	450.282	446.69	446.577	446.577	446.577	450.395	-2.24362	-13.4575
1204.17	282.51	678.358	447.365	446.617	446.58	446.58	446.58	447.402	-1.98283	-11.5478
1204.37	282.31	617.714	446.731	446.594	446.582	446.582	446.582	446.742	-1.53821	-8.54858
1204.57	282.11	482.312	446.608	446.586	446.583	446.583	446.583	446.611	-0.363493	-1.78503
1204.77	281.91	650.516	446.589	446.586	446.585	446.585	446.585	446.59	-1.78784	-10.1963
1204.97	281.71	329.474	446.587	446.587	446.587	446.587	446.587	446.587	1.44272	5.85567
1205.17	281.51	540.576	446.588	446.588	446.588	446.588	446.588	446.588	-0.903917	-4.69939
1205.37	281.31	355.666	355.666	355.666	355.666	355.666	355.666	355.666	0	0
1205.57	281.11	476.298	476.298	476.298	476.298	476.298	476.298	476.298	0	0
1205.77	280.91	294.428	294.428	294.428	294.428	294.428	294.428	294.428	0	0
1205.97	280.71	396.102	396.102	396.102	396.102	396.102	396.102	396.102	0	0
1206.17	280.51	283.978	283.978	283.978	283.978	283.978	283.978	283.978	0	0
1206.37	280.31	306.722	306.722	306.722	306.722	306.722	306.722	306.722	0	0
1206.57	280.11	268.358	268.358	268.358	268.358	268.358	268.358	268.358	0	0
1206.77	279.91	177.442	177.442	177.442	177.442	177.442	177.442	177.442	0	0
1206.97	279.71	188.985	188.985	188.985	188.985	188.985	188.985	188.985	0	0
1207.17	279.51	256.906	256.906	256.906	256.906	256.906	256.906	256.906	0	0
1207.37	279.31	319.026	319.026	319.026	319.026	319.026	319.026	319.026	0	0
1207.57	279.11	166.019	166.019	166.019	166.019	166.019	166.019	166.019	0	0
1207.77	278.91	169.205	169.205	169.205	169.205	169.205	169.205	169.205	0	0
1207.97	278.71	209.118	209.118	209.118	209.118	209.118	209.118	209.118	0	0