File: XPS/241019_191x195-2.3.csv
C1s Scan
	Characteristic Energy eV	1486.68	Acquisition Time s	0.05
KE_C1s Scan	BE_C1s Scan	CPS_C1s Scan	C-C/C-H_1_C1s Scan	C-O_2_C1s Scan	C=O_3_C1s Scan	O-C=O_4_C1s Scan	Background_C1s Scan	Envelope_C1s Scan	Normalised_Residual_C1s Scan	Residual_C1s Scan
1188.97	297.707	2239.36	2239.36	2239.36	2239.36	2239.36	2239.36	2239.36	0	0
1189.17	297.507	1681.61	1681.61	1681.61	1681.61	1681.61	1681.61	1681.61	0	0
1189.37	297.307	1993.27	1993.27	1993.27	1993.27	1993.27	1993.27	1993.27	0	0
1189.57	297.107	1905.77	1905.77	1905.77	1905.77	1905.77	1905.77	1905.77	0	0
1189.77	296.907	1676.5	1676.5	1676.5	1676.5	1676.5	1676.5	1676.5	0	0
1189.97	296.707	1834.82	1834.82	1834.82	1834.82	1834.82	1834.82	1834.82	0	0
1190.17	296.507	1537.19	1537.19	1537.19	1537.19	1537.19	1537.19	1537.19	0	0
1190.37	296.307	1766.16	1766.16	1766.16	1766.16	1766.16	1766.16	1766.16	0	0
1190.57	296.107	1815.08	1815.08	1815.08	1815.08	1815.08	1815.08	1815.08	0	0
1190.77	295.907	1647.46	1647.46	1647.46	1647.46	1647.46	1647.46	1647.46	0	0
1190.97	295.707	1236.1	1236.1	1236.1	1236.1	1236.1	1236.1	1236.1	0	0
1191.17	295.507	1353.64	1353.64	1353.64	1353.64	1353.64	1353.64	1353.64	0	0
1191.37	295.307	1235.77	1235.77	1235.77	1235.77	1235.77	1235.77	1235.77	0	0
1191.57	295.107	1312.67	1312.67	1312.67	1312.67	1312.67	1312.67	1312.67	0	0
1191.77	294.907	1237.85	1237.85	1237.85	1237.85	1237.85	1237.85	1237.85	0	0
1191.97	294.707	985.392	985.392	985.392	985.392	985.392	985.392	985.392	0	0
1192.17	294.507	1024.02	1024.02	1024.02	1024.02	1024.02	1024.02	1024.02	0	0
1192.37	294.307	895.724	895.724	895.724	895.724	895.724	895.724	895.724	0	0
1192.57	294.107	795.94	795.94	795.94	795.94	795.94	795.94	795.94	0	0
1192.77	293.907	940.804	940.804	940.804	940.804	940.804	940.804	940.804	0	0
1192.97	293.707	897.75	897.75	897.75	897.75	897.75	897.75	897.75	0	0
1193.17	293.507	549.306	549.306	549.306	549.306	549.306	549.306	549.306	0	0
1193.37	293.307	632.182	632.182	632.182	632.182	632.182	632.182	632.182	0	0
1193.57	293.107	621.3	621.3	621.3	621.3	621.301	621.3	621.301	0	0
1193.77	292.907	561.228	561.228	561.228	561.228	561.231	561.228	561.231	0	0
1193.97	292.707	614.088	614.088	614.088	614.088	614.099	614.088	614.099	0	0
1194.17	292.507	465.198	465.198	465.198	465.198	465.231	465.198	465.231	0	0
1194.37	292.307	477.634	477.634	477.634	477.634	477.726	477.634	477.726	0	0
1194.57	292.107	549.382	549.382	549.382	549.382	549.629	549.382	549.629	0	0
1194.77	291.907	574.556	574.556	574.556	574.557	575.184	574.556	575.185	0	0
1194.97	291.707	375.686	375.686	375.686	375.69	377.201	375.686	377.205	0	0
1195.17	291.507	468.832	468.832	468.832	468.846	472.293	468.832	472.307	0	0
1195.37	291.307	420.742	420.742	420.742	420.784	428.236	420.742	428.278	0	0
1195.57	291.107	318.084	272.145	272.145	272.268	287.521	272.145	287.643	-0.381656	-1.52205
1195.77	290.907	305.578	272.154	272.154	272.491	302.024	272.154	302.361	-0.0411505	-0.16085
1195.97	290.707	301.02	272.176	272.176	273.056	327.075	272.176	327.955	0.347142	1.34676
1196.17	290.507	525.892	272.219	272.22	274.395	367.523	272.219	369.7	-1.52299	-7.80961
1196.37	290.307	407.656	272.255	272.259	277.353	428.221	272.255	433.323	0.284253	1.28333
1196.57	290.107	549.818	272.311	272.325	283.634	511.821	272.311	523.158	-0.254239	-1.33302
1196.77	289.907	705.314	272.418	272.463	296.273	615.775	272.418	639.675	-0.552659	-3.28196
1196.97	289.707	662.198	272.531	272.667	320.221	729.268	272.531	777.094	0.998381	5.74481
1197.17	289.507	712.594	272.639	273.033	362.851	832.656	272.639	923.263	1.76467	10.5334
1197.37	289.307	1111.03	272.814	273.898	434.088	901.862	272.814	1064.22	-0.314011	-2.34041
1197.57	289.107	1073.17	273.049	275.874	544.962	917.655	273.049	1192.39	0.813776	5.96107
1197.77	288.907	1202.07	273.293	280.264	704.355	875.277	273.293	1313.31	0.71742	5.56191
1197.97	288.707	1437.93	273.551	289.855	913.354	787.073	273.551	1443.18	0.0309406	0.262351
1198.17	288.507	1865.55	273.884	310.027	1158.08	676.306	273.884	1596.64	-1.39214	-13.4453
1198.37	288.307	1697.49	274.259	350.186	1404.58	565.927	274.258	1772.17	0.405306	3.73398
1198.57	288.107	1884.11	274.639	425.757	1601.88	471.429	274.636	1949.8	0.338385	3.28435
1198.77	287.907	2250.24	275.07	559.935	1699.07	399.346	275.051	2108.27	-0.669237	-7.09871
1198.97	287.707	2416.6	275.606	783.61	1667.95	349.296	275.493	2249.99	-0.757867	-8.33067
1199.17	287.507	2690.44	276.653	1130.53	1518.14	317.375	276.05	2414.55	-1.18935	-13.7945
1199.37	287.307	2757.3	279.51	1627.26	1291.48	298.489	276.623	2666.87	-0.385064	-4.52126
1199.57	287.107	3033.66	289.587	2275.22	1041.38	288.176	277.214	3062.72	0.117958	1.45277
1199.77	286.907	3375.94	325.555	3028.77	811.821	283.231	278.02	3615.32	0.921238	11.9689
1199.97	286.707	4610.86	442.638	3780.64	626.972	281.265	278.917	4294.77	-1.0409	-15.8047
1200.17	286.507	4661.84	785.503	4374.73	493.053	280.967	279.964	5094.36	1.41648	21.6259
1200.37	286.307	6403.64	1679.77	4655.95	404.303	281.814	281.408	6177.62	-0.631578	-11.3012
1200.57	286.107	8394.46	3740.88	4540.61	350.144	283.362	283.206	8065.38	-0.80314	-16.454
1200.77	285.907	11542.1	7895.11	4065.82	320.11	285.678	285.621	11709.9	0.349187	8.38852
1200.97	285.707	17732.7	15077.2	3364.9	306.236	289.43	289.41	18169.5	0.733545	21.8423
1201.17	285.507	28786.4	25350.8	2602.5	303.323	295.552	295.546	27665.5	-1.47724	-56.0443
1201.37	285.307	38836	36669.4	1910.25	307.526	304.122	304.12	38278.9	-0.632099	-27.854
1201.57	285.107	45507.6	44662.4	1358.67	315.953	314.541	314.54	45707.9	0.209978	10.0162
1201.77	284.907	45784.2	45147.3	962.508	326.159	325.601	325.601	45784.8	0.000623576	0.0298354
1201.97	284.707	39133.4	37847.2	701.392	335.677	335.468	335.468	38213.3	-1.04005	-46.0058
1202.17	284.507	26602.8	26666.5	541.188	342.465	342.391	342.391	26865.4	0.360009	13.1299
1202.37	284.307	16528.9	16135.8	449.187	347.023	346.998	346.998	16238	-0.505837	-14.5418
1202.57	284.107	7487.28	8590.38	398.879	349.137	349.129	349.129	8640.14	2.97919	57.6429
1202.77	283.907	4625.96	4143.98	373.235	350.287	350.285	350.285	4166.93	-1.50912	-22.9514
1202.97	283.707	2768.94	1904.02	360.973	350.941	350.94	350.94	1914.05	-3.63277	-42.7444
1203.17	283.507	1753.35	919.456	355.474	351.318	351.317	351.317	923.613	-4.43088	-41.4867
1203.37	283.307	1052.91	537.741	353.189	351.558	351.557	351.557	539.372	-3.53886	-25.677
1203.57	283.107	1162.49	406.459	352.369	351.762	351.762	351.762	407.066	-4.95428	-37.7711
1203.77	282.907	872.816	366.279	352.087	351.872	351.872	351.872	366.494	-3.83222	-25.3161
1203.97	282.707	738.828	355.36	352.031	351.959	351.959	351.959	355.432	-3.154	-19.1698
1204.17	282.507	506.842	352.713	352.017	351.994	351.994	351.994	352.736	-1.53062	-7.70529
1204.37	282.307	555.136	352.191	352.061	352.055	352.055	352.055	352.198	-1.92597	-10.1469
1204.57	282.107	469.962	352.097	352.076	352.074	352.074	352.074	352.099	-1.21571	-5.89313
1204.77	281.907	500.296	352.111	352.108	352.108	352.108	352.108	352.112	-1.4814	-7.40921
1204.97	281.707	362.79	352.13	352.129	352.129	352.129	352.129	352.13	-0.125148	-0.53301
1205.17	281.507	386.908	386.908	386.908	386.908	386.908	386.908	386.908	0	0
1205.37	281.307	303.956	303.956	303.956	303.956	303.956	303.956	303.956	0	0
1205.57	281.107	361.226	361.226	361.226	361.226	361.226	361.226	361.226	0	0
1205.77	280.907	286.552	286.552	286.552	286.552	286.552	286.552	286.552	0	0
1205.97	280.707	328.678	328.678	328.678	328.678	328.678	328.678	328.678	0	0
1206.17	280.507	403.398	403.398	403.398	403.398	403.398	403.398	403.398	0	0
1206.37	280.307	198.244	198.244	198.244	198.244	198.244	198.244	198.244	0	0
1206.57	280.107	326.77	326.77	326.77	326.77	326.77	326.77	326.77	0	0
1206.77	279.907	290.264	290.264	290.264	290.264	290.264	290.264	290.264	0	0
1206.97	279.707	262.826	262.826	262.826	262.826	262.826	262.826	262.826	0	0
1207.17	279.507	244.928	244.928	244.928	244.928	244.928	244.928	244.928	0	0
1207.37	279.307	232.894	232.894	232.894	232.894	232.894	232.894	232.894	0	0
1207.57	279.107	205.386	205.386	205.386	205.386	205.386	205.386	205.386	0	0
1207.77	278.907	236.204	236.204	236.204	236.204	236.204	236.204	236.204	0	0
1207.97	278.707	170.624	170.624	170.624	170.624	170.624	170.624	170.624	0	0