File: XPS/241019_191x195-3.2.csv
C1s Scan
	Characteristic Energy eV	1486.68	Acquisition Time s	0.05
KE_C1s Scan	BE_C1s Scan	CPS_C1s Scan	C-C/C-H_1_C1s Scan	C-O_2_C1s Scan	C=O_3_C1s Scan	O-C=O_4_C1s Scan	Background_C1s Scan	Envelope_C1s Scan	Normalised_Residual_C1s Scan	Residual_C1s Scan
1188.98	297.699	2723.04	2723.04	2723.04	2723.04	2723.04	2723.04	2723.04	0	0
1189.18	297.499	2863.26	2863.26	2863.26	2863.26	2863.26	2863.26	2863.26	0	0
1189.38	297.299	2757.42	2757.42	2757.42	2757.42	2757.42	2757.42	2757.42	0	0
1189.58	297.099	2407.64	2407.64	2407.64	2407.64	2407.64	2407.64	2407.64	0	0
1189.78	296.899	2786.02	2786.02	2786.02	2786.02	2786.02	2786.02	2786.02	0	0
1189.98	296.699	2569.6	2569.6	2569.6	2569.6	2569.6	2569.6	2569.6	0	0
1190.18	296.499	2461.32	2461.32	2461.32	2461.32	2461.32	2461.32	2461.32	0	0
1190.38	296.299	2051.6	2051.6	2051.6	2051.6	2051.6	2051.6	2051.6	0	0
1190.58	296.099	2143.96	2143.96	2143.96	2143.96	2143.96	2143.96	2143.96	0	0
1190.78	295.899	2169.76	2169.76	2169.76	2169.76	2169.76	2169.76	2169.76	0	0
1190.98	295.699	2214.36	2214.36	2214.36	2214.36	2214.36	2214.36	2214.36	0	0
1191.18	295.499	1587.75	1587.75	1587.75	1587.75	1587.75	1587.75	1587.75	0	0
1191.38	295.299	2314.84	2314.84	2314.84	2314.84	2314.84	2314.84	2314.84	0	0
1191.58	295.099	1663.92	1663.92	1663.92	1663.92	1663.92	1663.92	1663.92	0	0
1191.78	294.899	1668.84	1668.84	1668.84	1668.84	1668.84	1668.84	1668.84	0	0
1191.98	294.699	1811.85	1811.85	1811.85	1811.85	1811.85	1811.85	1811.85	0	0
1192.18	294.499	1300.56	1300.56	1300.56	1300.56	1300.56	1300.56	1300.56	0	0
1192.38	294.299	1751.16	1751.16	1751.16	1751.16	1751.16	1751.16	1751.16	0	0
1192.58	294.099	1100.53	1100.53	1100.53	1100.53	1100.53	1100.53	1100.53	0	0
1192.78	293.899	1094.06	1094.06	1094.06	1094.06	1094.06	1094.06	1094.06	0	0
1192.98	293.699	1227.25	1227.25	1227.25	1227.25	1227.25	1227.25	1227.25	0	0
1193.18	293.499	1182.69	1182.69	1182.69	1182.69	1182.69	1182.69	1182.69	0	0
1193.38	293.299	928.432	928.432	928.432	928.432	928.432	928.432	928.432	0	0
1193.58	293.099	727.768	727.768	727.768	727.768	727.768	727.768	727.768	0	0
1193.78	292.899	959.39	959.39	959.39	959.39	959.39	959.39	959.39	0	0
1193.98	292.699	719.428	719.428	719.428	719.428	719.428	719.428	719.428	0	0
1194.18	292.499	657.18	657.18	657.18	657.18	657.181	657.18	657.181	0	0
1194.38	292.299	592.892	592.892	592.892	592.892	592.896	592.892	592.896	0	0
1194.58	292.099	529.618	529.618	529.618	529.618	529.633	529.618	529.633	0	0
1194.78	291.899	462.986	462.986	462.986	462.986	463.037	462.986	463.037	0	0
1194.98	291.699	371.82	371.82	371.82	371.82	371.983	371.82	371.983	0	0
1195.18	291.499	425.53	425.53	425.53	425.53	426.019	425.53	426.02	0	0
1195.38	291.299	576.006	576.006	576.006	576.007	577.376	576.006	577.377	0	0
1195.58	291.099	327.8	451.661	451.661	451.667	455.253	451.661	455.259	1.57417	6.37294
1195.78	290.899	522.41	451.698	451.698	451.72	460.484	451.698	460.505	-0.605626	-3.09525
1195.98	290.699	489.648	451.721	451.721	451.796	471.828	451.721	471.903	-0.179315	-0.887247
1196.18	290.499	379.168	451.741	451.741	451.983	494.656	451.741	494.898	1.32897	5.78648
1196.38	290.299	536.612	451.84	451.84	452.576	537.298	451.84	538.034	0.013724	0.0710878
1196.58	290.099	565.782	451.966	451.966	454.046	610.132	451.966	612.213	0.436486	2.32156
1196.78	289.899	620.754	452.056	452.059	457.581	723.313	452.056	728.841	0.970057	5.40433
1196.98	289.699	1003.8	452.276	452.287	465.93	880.648	452.276	894.313	-0.772706	-5.47423
1197.18	289.499	1252.01	452.63	452.673	484.268	1070.87	452.63	1102.55	-0.944499	-7.47292
1197.38	289.299	1289.27	452.972	453.128	521.242	1260.79	452.972	1329.22	0.248766	1.99732
1197.58	289.099	1341.36	453.361	453.885	591.022	1400.01	453.361	1538.2	1.20175	9.84177
1197.78	288.899	1808.43	453.906	455.553	711.775	1442.03	453.906	1701.54	-0.562004	-5.3441
1197.98	288.699	1669.44	454.501	459.324	902.774	1371.25	454.501	1824.34	0.847726	7.74508
1198.18	288.499	2082	455.232	468.467	1173.24	1213.91	455.232	1945.15	-0.670652	-6.84263
1198.38	288.299	1891.87	456.015	489.865	1508.82	1020.53	456.015	2107.19	1.1069	10.7656
1198.58	288.099	2507.4	456.88	537.999	1856.69	838.172	456.879	2319.1	-0.840865	-9.41506
1198.78	287.899	2281.6	457.685	638.858	2129.15	693.558	457.68	2546.21	1.23874	13.2307
1198.98	287.699	2868.62	458.791	837.158	2238.49	593.41	458.754	2751.59	-0.488592	-5.85151
1199.18	287.499	2654.38	460.014	1194.79	2143.55	531.043	459.775	2950.08	1.28338	14.785
1199.38	287.299	3833.24	462.46	1789.13	1881.02	496.21	461.084	3245.57	-2.12244	-29.3835
1199.58	287.099	4023.52	469.653	2679.37	1537.55	478.824	462.69	3777.32	-0.867888	-12.3098
1199.78	286.899	4812.86	495.642	3866.39	1201.97	471.549	464.62	4641.7	-0.551683	-8.55808
1199.98	286.699	5438.04	589.944	5221.9	929.518	469.548	466.773	5810.59	1.12966	18.6274
1200.18	286.499	6723.42	900.167	6467.43	737.105	470.571	469.53	7166.68	1.20879	22.1632
1200.38	286.299	8129.18	1806.88	7242.66	616.446	473.37	473.005	8720.34	1.46611	29.5579
1200.58	286.099	10787.9	4127.2	7269.9	548.932	477.548	477.428	10991.3	0.437927	10.1708
1200.78	285.899	15623.9	9252.39	6548.67	516.973	483.761	483.725	15350.6	-0.488807	-13.6621
1200.98	285.699	24436	18920.1	5332.98	508.182	493.763	493.752	23773.8	-0.947237	-33.11
1201.18	285.499	37716.8	33821.8	3992.21	515.216	509.365	509.362	37310.5	-0.467796	-20.3146
1201.38	285.299	53392	51397.5	2814.98	533.935	531.717	531.716	53683	0.281635	14.5516
1201.58	285.099	66002	64652.6	1933.73	561.077	560.291	560.291	66026.8	0.0215764	1.23949
1201.78	284.899	65942.6	66132.2	1355.77	591.159	590.898	590.898	66897.3	0.831326	47.7353
1201.98	284.699	55911.2	54852	1013.03	618.408	618.327	618.327	55246.8	-0.628316	-33.221
1202.18	284.499	39797.4	37525.2	828.264	637.997	637.973	637.973	37715.5	-2.33357	-104.096
1202.38	284.299	20043.6	21731.3	733.858	648.585	648.578	648.578	21816.6	2.80033	88.6507
1202.58	284.099	10604.3	11002.1	689.773	653.904	653.902	653.902	11038	0.941779	21.6858
1202.78	283.899	5828.94	5074.32	670.775	656.757	656.757	656.757	5088.34	-2.16907	-37.03
1202.98	283.699	3306.22	2317.15	663.245	658.089	658.089	658.089	2322.31	-3.82627	-49.1956
1203.18	283.499	2410.6	1208.85	660.831	659.073	659.073	659.073	1210.61	-5.46514	-59.9997
1203.38	283.299	1777.54	820.308	660.203	659.637	659.637	659.637	820.873	-5.07383	-47.8333
1203.58	283.099	1240.42	701.736	660.13	659.962	659.962	659.962	701.904	-3.419	-26.9258
1203.78	282.899	1158.32	669.747	660.23	660.183	660.183	660.183	669.794	-3.20965	-24.4262
1203.98	282.699	1276.29	662.383	660.454	660.442	660.442	660.442	662.395	-3.84241	-30.6947
1204.18	282.499	948.632	660.928	660.582	660.579	660.579	660.579	660.931	-2.08871	-14.385
1204.38	282.299	515.23	660.696	660.642	660.641	660.641	660.641	660.697	1.43301	7.27334
1204.58	282.099	800.962	660.706	660.698	660.698	660.698	660.698	660.706	-1.10815	-7.01279
1204.78	281.899	568.26	568.261	568.26	568.26	568.26	568.26	568.261	0	0
1204.98	281.699	532.702	532.702	532.702	532.702	532.702	532.702	532.702	0	0
1205.18	281.499	528.392	528.392	528.392	528.392	528.392	528.392	528.392	0	0
1205.38	281.299	386.676	386.676	386.676	386.676	386.676	386.676	386.676	0	0
1205.58	281.099	585.282	585.282	585.282	585.282	585.282	585.282	585.282	0	0
1205.78	280.899	267.02	267.02	267.02	267.02	267.02	267.02	267.02	0	0
1205.98	280.699	216.878	216.878	216.878	216.878	216.878	216.878	216.878	0	0
1206.18	280.499	390.816	390.816	390.816	390.816	390.816	390.816	390.816	0	0
1206.38	280.299	414.772	414.772	414.772	414.772	414.772	414.772	414.772	0	0
1206.58	280.099	119.056	119.056	119.056	119.056	119.056	119.056	119.056	0	0
1206.78	279.899	291.068	291.068	291.068	291.068	291.068	291.068	291.068	0	0
1206.98	279.699	265.478	265.478	265.478	265.478	265.478	265.478	265.478	0	0
1207.18	279.499	252.39	252.39	252.39	252.39	252.39	252.39	252.39	0	0
1207.38	279.299	335.7	335.7	335.7	335.7	335.7	335.7	335.7	0	0
1207.58	279.099	198.566	198.566	198.566	198.566	198.566	198.566	198.566	0	0
1207.78	278.899	124.902	124.902	124.902	124.902	124.902	124.902	124.902	0	0
1207.98	278.699	279.39	279.39	279.39	279.39	279.39	279.39	279.39	0	0