File: XPS/241019_195-3.1.csv
C1s Scan
	Characteristic Energy eV	1486.68	Acquisition Time s	0.05
KE_C1s Scan	BE_C1s Scan	CPS_C1s Scan	C-C/C-H_1_C1s Scan	C-O_2_C1s Scan	C=O_3_C1s Scan	O-C=O_4_C1s Scan	Background_C1s Scan	Envelope_C1s Scan	Normalised_Residual_C1s Scan	Residual_C1s Scan
1189.06	297.621	1841.87	1841.87	1841.87	1841.87	1841.87	1841.87	1841.87	0	0
1189.26	297.421	2018.28	2018.28	2018.28	2018.28	2018.28	2018.28	2018.28	0	0
1189.46	297.221	2078.76	2078.76	2078.76	2078.76	2078.76	2078.76	2078.76	0	0
1189.66	297.021	1920.14	1920.14	1920.14	1920.14	1920.14	1920.14	1920.14	0	0
1189.86	296.821	2143.62	2143.62	2143.62	2143.62	2143.62	2143.62	2143.62	0	0
1190.06	296.621	1676.39	1676.39	1676.39	1676.39	1676.39	1676.39	1676.39	0	0
1190.26	296.421	1838.96	1838.96	1838.96	1838.96	1838.96	1838.96	1838.96	0	0
1190.46	296.221	1613.85	1613.85	1613.85	1613.85	1613.85	1613.85	1613.85	0	0
1190.66	296.021	1435.74	1435.74	1435.74	1435.74	1435.74	1435.74	1435.74	0	0
1190.86	295.821	1863.01	1863.01	1863.01	1863.01	1863.01	1863.01	1863.01	0	0
1191.06	295.621	1506.15	1506.15	1506.15	1506.15	1506.15	1506.15	1506.15	0	0
1191.26	295.421	1481.89	1481.89	1481.89	1481.89	1481.89	1481.89	1481.89	0	0
1191.46	295.221	1458.88	1458.88	1458.88	1458.88	1458.88	1458.88	1458.88	0	0
1191.66	295.021	1233.62	1233.62	1233.62	1233.62	1233.62	1233.62	1233.62	0	0
1191.86	294.821	1388.81	1388.81	1388.81	1388.81	1388.81	1388.81	1388.81	0	0
1192.06	294.621	1081.32	1081.32	1081.32	1081.32	1081.32	1081.32	1081.32	0	0
1192.26	294.421	1230.93	1230.93	1230.93	1230.93	1230.93	1230.93	1230.93	0	0
1192.46	294.221	1111.59	1111.59	1111.59	1111.59	1111.59	1111.59	1111.59	0	0
1192.66	294.021	888.898	888.898	888.898	888.898	888.898	888.898	888.898	0	0
1192.86	293.821	881.538	881.538	881.538	881.538	881.538	881.538	881.538	0	0
1193.06	293.621	967.582	967.582	967.582	967.582	967.582	967.582	967.582	0	0
1193.26	293.421	719.174	719.174	719.174	719.174	719.174	719.174	719.174	0	0
1193.46	293.221	1048.83	1048.83	1048.83	1048.83	1048.83	1048.83	1048.83	0	0
1193.66	293.021	940.884	940.884	940.884	940.884	940.884	940.884	940.884	0	0
1193.86	292.821	593.42	593.42	593.42	593.42	593.42	593.42	593.42	0	0
1194.06	292.621	565.394	565.394	565.394	565.394	565.394	565.394	565.394	0	0
1194.26	292.421	543.856	543.856	543.856	543.856	543.857	543.856	543.857	0	0
1194.46	292.221	528.22	528.22	528.22	528.22	528.224	528.22	528.224	0	0
1194.66	292.021	562.442	562.442	562.442	562.442	562.458	562.442	562.458	0	0
1194.86	291.821	690.042	690.042	690.042	690.042	690.097	690.042	690.097	0	0
1195.06	291.621	587.758	587.758	587.758	587.758	587.935	587.758	587.936	0	0
1195.26	291.421	618.28	618.28	618.28	618.281	618.812	618.28	618.814	0	0
1195.46	291.221	678.908	678.908	678.908	678.914	680.399	678.908	680.405	0	0
1195.66	291.021	483.78	534.225	534.225	534.246	538.134	534.225	538.155	0.55279	2.71875
1195.86	290.821	519.33	534.242	534.242	534.315	543.813	534.242	543.887	0.240952	1.22783
1196.06	290.621	551.564	534.252	534.252	534.492	556.16	534.252	556.4	0.0460477	0.241819
1196.26	290.421	720.598	534.311	534.311	535.045	581.11	534.311	581.844	-1.1558	-6.93769
1196.46	290.221	683.994	534.332	534.332	536.431	627.55	534.332	629.649	-0.464641	-2.71724
1196.66	290.021	642.524	534.361	534.362	539.956	707.023	534.361	712.62	0.618352	3.50482
1196.86	289.821	771.174	534.406	534.412	548.373	830.659	534.406	844.631	0.591486	3.67287
1197.06	289.621	1148.74	534.543	534.565	567.079	1002.74	534.543	1035.29	-0.748462	-5.67239
1197.26	289.421	1431.61	534.77	534.851	605.611	1210.95	534.77	1281.87	-0.884902	-7.48672
1197.46	289.221	1332.96	534.995	535.274	678.776	1419.21	534.995	1563.27	1.41056	11.5155
1197.66	289.021	1318.55	535.263	536.157	806.958	1572.4	535.263	1844.99	3.24179	26.3219
1197.86	288.821	2172.28	535.68	538.365	1011.75	1619.14	535.68	2097.9	-0.356854	-3.71906
1198.06	288.621	2396.96	536.175	543.695	1305.9	1542.35	536.175	2319.6	-0.353334	-3.86812
1198.26	288.421	2621.18	536.694	556.409	1676.64	1370.04	536.694	2529.7	-0.399543	-4.57401
1198.46	288.221	2564.44	537.29	585.549	2069.78	1157.85	537.289	2738.6	0.769036	8.70819
1198.66	288.021	3073.64	537.946	648.404	2390.32	957.405	537.943	2920.24	-0.6187	-7.66993
1198.86	287.821	2950.36	538.6	774.507	2535.95	798.213	538.584	3031.51	0.334076	4.05758
1199.06	287.621	2996.06	539.289	1009.09	2453.35	687.512	539.188	3071.68	0.308912	3.7809
1199.26	287.421	3153.28	540.425	1410.1	2173.88	618.383	539.855	3123.22	-0.119681	-1.50276
1199.46	287.221	3202.12	543.453	2033.62	1791.54	579.332	540.596	3326.15	0.490115	6.20157
1199.66	287.021	4291.12	554.211	2900.7	1408.5	559.294	541.5	3798.21	-1.68256	-24.6457
1199.86	286.821	5082.26	592.884	3949.34	1091.74	550.216	542.567	4556.47	-1.64917	-26.2893
1200.06	286.621	5235.22	721.44	4998.03	864.086	546.881	543.816	5498.98	0.815142	13.1882
1200.26	286.421	6703.76	1105.07	5769.01	718.493	546.548	545.397	6502.93	-0.548471	-10.0415
1200.46	286.221	7264.78	2114.06	6003.12	634.007	547.478	547.075	7657.44	1.03013	19.633
1200.66	286.021	9474.96	4439.85	5615.2	590.05	549.438	549.306	9546.62	0.164609	3.58284
1200.86	285.821	14310.1	9076.46	4747.57	570.292	552.529	552.489	13289.4	-1.90798	-51.0364
1201.06	285.621	20073	16885.5	3680.81	564.636	557.366	557.354	20016.2	-0.0896464	-2.84004
1201.26	285.421	29132.6	27502.2	2675.19	567.024	564.25	564.247	29615.9	0.63314	24.1643
1201.46	285.221	38575.8	38050.1	1880.52	575.063	574.071	574.071	39357.6	0.890027	39.0882
1201.66	285.021	44864.6	43692.7	1331.85	585.918	585.588	585.588	44439.3	-0.449021	-21.2669
1201.86	284.821	42741.8	41159.2	992.089	597.119	597.016	597.016	41554.4	-1.28424	-59.3688
1202.06	284.621	33107.4	31975.5	801.016	606.201	606.171	606.171	32170.4	-1.15151	-46.8508
1202.26	284.421	21517.4	20901.4	701.829	612.332	612.324	612.324	20990.9	-0.802583	-26.3251
1202.46	284.221	11703.6	11830.2	654.247	615.784	615.782	615.782	11868.7	0.341181	8.25334
1202.66	284.021	5789.74	6006.94	632.852	617.442	617.442	617.442	6022.35	0.683583	11.6307
1202.86	283.821	3423.48	2896.19	624.152	618.364	618.364	618.364	2901.98	-1.99299	-26.075
1203.06	283.621	2204.04	1470.94	620.912	618.888	618.888	618.888	1472.96	-3.48207	-36.5538
1203.26	283.421	1364.23	902.769	619.857	619.193	619.193	619.193	903.434	-2.78965	-23.0398
1203.46	283.221	1222.33	703.53	619.562	619.359	619.359	619.359	703.733	-3.31681	-25.9299
1203.66	283.021	925.826	641.71	619.527	619.469	619.469	619.469	641.769	-2.0875	-14.2029
1203.86	282.821	1034.92	624.795	619.583	619.567	619.567	619.567	624.811	-2.85057	-20.5055
1204.06	282.621	667.154	620.693	619.605	619.602	619.602	619.602	620.697	-0.402183	-2.32285
1204.26	282.421	705.43	619.818	619.616	619.615	619.615	619.615	619.818	-0.72076	-4.28058
1204.46	282.221	651.846	619.682	619.649	619.649	619.649	619.649	619.683	-0.281693	-1.60817
1204.66	282.021	852.586	619.693	619.688	619.688	619.688	619.688	619.693	-1.7835	-11.6447
1204.86	281.821	577.18	619.708	619.707	619.707	619.707	619.707	619.708	0.395826	2.1264
1205.06	281.621	597.752	597.752	597.752	597.752	597.752	597.752	597.752	0	0
1205.26	281.421	441.356	441.356	441.356	441.356	441.356	441.356	441.356	0	0
1205.46	281.221	444.972	444.972	444.972	444.972	444.972	444.972	444.972	0	0
1205.66	281.021	445.666	445.666	445.666	445.666	445.666	445.666	445.666	0	0
1205.86	280.821	376.428	376.428	376.428	376.428	376.428	376.428	376.428	0	0
1206.06	280.621	305.9	305.9	305.9	305.9	305.9	305.9	305.9	0	0
1206.26	280.421	498.956	498.956	498.956	498.956	498.956	498.956	498.956	0	0
1206.46	280.221	322.094	322.094	322.094	322.094	322.094	322.094	322.094	0	0
1206.66	280.021	270.936	270.936	270.936	270.936	270.936	270.936	270.936	0	0
1206.86	279.821	295.994	295.994	295.994	295.994	295.994	295.994	295.994	0	0
1207.06	279.621	283.372	283.372	283.372	283.372	283.372	283.372	283.372	0	0
1207.26	279.421	293.14	293.14	293.14	293.14	293.14	293.14	293.14	0	0
1207.46	279.221	355.19	355.19	355.19	355.19	355.19	355.19	355.19	0	0
1207.66	279.021	446.494	446.494	446.494	446.494	446.494	446.494	446.494	0	0
1207.86	278.821	374.054	374.054	374.054	374.054	374.054	374.054	374.054	0	0
1208.06	278.621	253.012	253.012	253.012	253.012	253.012	253.012	253.012	0	0