File: XPS/241019_C-1.2.csv
C1s Scan
	Characteristic Energy eV	1486.68	Acquisition Time s	0.05
KE_C1s Scan	BE_C1s Scan	CPS_C1s Scan	C-C/C-H_1_C1s Scan	C-O_2_C1s Scan	C=O_3_C1s Scan	O-C=O_4_C1s Scan	Background_C1s Scan	Envelope_C1s Scan	Normalised_Residual_C1s Scan	Residual_C1s Scan
1188.8	297.882	1684.6	1684.6	1684.6	1684.6	1684.6	1684.6	1684.6	0	0
1189	297.682	1708.33	1708.33	1708.33	1708.33	1708.33	1708.33	1708.33	0	0
1189.2	297.482	1441.72	1441.72	1441.72	1441.72	1441.72	1441.72	1441.72	0	0
1189.4	297.282	1226.32	1226.32	1226.32	1226.32	1226.32	1226.32	1226.32	0	0
1189.6	297.082	1477.35	1477.35	1477.35	1477.35	1477.35	1477.35	1477.35	0	0
1189.8	296.882	1224.72	1224.72	1224.72	1224.72	1224.72	1224.72	1224.72	0	0
1190	296.682	1038.92	1038.92	1038.92	1038.92	1038.92	1038.92	1038.92	0	0
1190.2	296.482	1142.28	1142.28	1142.28	1142.28	1142.28	1142.28	1142.28	0	0
1190.4	296.282	1173.35	1173.35	1173.35	1173.35	1173.35	1173.35	1173.35	0	0
1190.6	296.082	1077.69	1077.69	1077.69	1077.69	1077.69	1077.69	1077.69	0	0
1190.8	295.882	683.684	683.684	683.684	683.684	683.684	683.684	683.684	0	0
1191	295.682	810.162	810.162	810.162	810.162	810.162	810.162	810.162	0	0
1191.2	295.482	840.078	840.078	840.078	840.078	840.078	840.078	840.078	0	0
1191.4	295.282	1094.63	1094.63	1094.63	1094.63	1094.63	1094.63	1094.63	0	0
1191.6	295.082	802.228	802.228	802.228	802.228	802.228	802.228	802.228	0	0
1191.8	294.882	700.894	700.894	700.894	700.894	700.894	700.894	700.894	0	0
1192	294.682	936.002	936.002	936.002	936.002	936.002	936.002	936.002	0	0
1192.2	294.482	607.462	607.462	607.462	607.462	607.462	607.462	607.462	0	0
1192.4	294.282	654.492	654.492	654.492	654.492	654.492	654.492	654.492	0	0
1192.6	294.082	680.626	680.626	680.626	680.626	680.626	680.626	680.626	0	0
1192.8	293.882	443.102	443.102	443.102	443.102	443.102	443.102	443.102	0	0
1193	293.682	522.642	522.642	522.642	522.642	522.642	522.642	522.642	0	0
1193.2	293.482	592.206	592.206	592.206	592.206	592.206	592.206	592.206	0	0
1193.4	293.282	498.306	498.306	498.306	498.306	498.306	498.306	498.306	0	0
1193.6	293.082	540.608	540.608	540.608	540.608	540.609	540.608	540.609	0	0
1193.8	292.882	510.176	510.176	510.176	510.176	510.179	510.176	510.179	0	0
1194	292.682	417.472	417.472	417.472	417.472	417.481	417.472	417.481	0	0
1194.2	292.482	335.268	335.268	335.268	335.268	335.295	335.268	335.295	0	0
1194.4	292.282	409.758	409.758	409.758	409.758	409.832	409.758	409.832	0	0
1194.6	292.082	175.694	175.694	175.694	175.695	175.887	175.694	175.888	0	0
1194.8	291.882	142.25	142.25	142.25	142.252	142.73	142.25	142.732	0	0
1195	291.682	240.766	240.766	240.766	240.775	241.898	240.766	241.907	0	0
1195.2	291.482	265.522	265.522	265.522	265.549	268.054	265.522	268.081	0	0
1195.4	291.282	251.72	251.72	251.72	251.797	257.094	251.72	257.172	0	0
1195.6	291.082	252.028	301.917	301.917	302.128	312.736	301.917	312.947	0.858048	3.04594
1195.8	290.882	186.634	301.916	301.916	302.457	322.603	301.916	323.145	2.23437	6.82553
1196	290.682	340.378	301.915	301.915	303.238	339.411	301.915	340.735	0.00432676	0.0178496
1196.2	290.482	309.862	301.915	301.916	304.984	366.151	301.915	369.223	0.754049	2.96803
1196.4	290.282	326.354	301.913	301.918	308.696	405.682	301.913	412.471	1.06593	4.30583
1196.6	290.082	476.512	301.91	301.927	316.123	459.441	301.91	473.671	-0.0291044	-0.142063
1196.8	289.882	456.58	301.906	301.959	330.144	525.624	301.906	553.916	1.01859	4.86679
1197	289.682	730.574	301.897	302.055	355.071	597.247	301.897	650.579	-0.661785	-3.99976
1197.2	289.482	882.716	301.884	302.329	396.707	661.962	301.884	757.229	-0.94444	-6.27437
1197.4	289.282	786.468	301.871	303.065	461.943	704.967	301.871	866.232	0.635993	3.98821
1197.6	289.082	1047.21	301.855	304.894	556.369	714.606	301.855	972.159	-0.518564	-3.75235
1197.8	288.882	1120.06	301.838	309.172	681.578	687.982	301.838	1075.06	-0.300652	-2.24993
1198	288.682	990.608	301.818	318.614	830.864	632.585	301.818	1178.43	1.33437	9.39099
1198.2	288.482	1229.31	301.797	338.338	985.942	562.703	301.797	1283.39	0.34487	2.70378
1198.4	288.282	1451.87	301.771	377.415	1117.37	492.457	301.77	1383.71	-0.400002	-3.40809
1198.6	288.082	1608.02	301.748	450.181	1193.2	431.662	301.742	1471.57	-0.76087	-6.82245
1198.8	287.882	1402.02	301.751	577.668	1192.39	384.665	301.715	1551.33	0.891609	7.46513
1199	287.682	1812.23	301.87	787.149	1115.17	351.605	301.68	1650.76	-0.848146	-8.0735
1199.2	287.482	1883.27	302.55	1108.41	982.981	330.028	301.646	1819.03	-0.331014	-3.21209
1199.4	287.282	2173.72	305.479	1565.35	827.711	316.873	301.605	2110.6	-0.302741	-3.15615
1199.6	287.082	2500.08	316.608	2156.64	678.673	309.337	301.556	2556.59	0.252726	2.82561
1199.8	286.882	3377.06	354.251	2840.1	553.946	305.244	301.484	3149.08	-0.877214	-11.3988
1200	286.682	3399.66	468.043	3520.36	460.03	303.136	301.408	3847.35	1.71689	22.3844
1200.2	286.482	3990.4	775.584	4059.95	395.202	302.071	301.317	4628.85	2.25999	31.9227
1200.4	286.282	5331.7	1518.79	4319.49	353.751	301.515	301.203	5589.94	0.790811	12.9119
1200.6	286.082	7151.52	3113.99	4226.16	328.93	301.169	301.047	7067.11	-0.223195	-4.22055
1200.8	285.882	9592.06	6107.4	3807.78	314.864	300.885	300.839	9628.41	0.0830021	1.81773
1201	285.682	14617.6	10925	3177.59	307.215	300.542	300.526	13808.8	-1.49588	-40.4408
1201.2	285.482	19689.2	17317.3	2479.75	303.137	300.116	300.111	19499.9	-0.301557	-9.46167
1201.4	285.282	25518.8	23752.1	1834.6	300.843	299.545	299.543	25288.5	-0.32242	-11.5169
1201.6	285.082	28547	27633	1310.21	299.425	298.893	298.893	28644.9	0.129524	4.89345
1201.8	284.882	28373.2	26971.8	924.336	298.423	298.217	298.217	27598.1	-1.02894	-38.7552
1202	284.682	22368.8	22126.7	663.167	297.722	297.646	297.646	22492.3	0.184686	6.17646
1202.2	284.482	15705.5	15468.7	498.913	297.258	297.231	297.231	15670.5	-0.0624947	-1.75127
1202.4	284.282	9070.94	9416.69	402.493	297.002	296.993	296.993	9522.2	1.05946	22.563
1202.6	284.082	5267.22	5113.62	349.26	296.853	296.85	296.85	5166.03	-0.311756	-5.0593
1202.8	283.882	2421.5	2557.43	321.485	296.787	296.787	296.787	2582.13	0.729921	8.03162
1203	283.682	1835.57	1246.96	307.789	296.749	296.748	296.748	1258	-3.01443	-28.8785
1203.2	283.482	870.344	656.764	301.414	296.733	296.733	296.733	661.445	-1.58334	-10.4449
1203.4	283.282	802.12	419.62	298.606	296.721	296.721	296.721	421.505	-3.00505	-19.0308
1203.6	283.082	733.986	334.511	297.433	296.71	296.71	296.71	335.235	-3.29111	-19.9376
1203.8	282.882	643.962	307.172	296.964	296.701	296.701	296.701	307.435	-2.96534	-16.8263
1204	282.682	451.462	299.328	296.788	296.697	296.697	296.697	299.419	-1.60008	-7.60215
1204.2	282.482	447.94	297.289	296.722	296.693	296.693	296.693	297.318	-1.59134	-7.53109
1204.4	282.282	429.288	296.812	296.7	296.69	296.69	296.69	296.821	-1.42961	-6.62336
1204.6	282.082	327.744	296.712	296.692	296.689	296.689	296.689	296.714	-0.38326	-1.55148
1204.8	281.882	321.08	296.692	296.689	296.689	296.689	296.689	296.693	-0.304324	-1.21935
1205	281.682	319.88	319.881	319.88	319.88	319.88	319.88	319.881	0	0
1205.2	281.482	272.384	272.384	272.384	272.384	272.384	272.384	272.384	0	0
1205.4	281.282	190.682	190.682	190.682	190.682	190.682	190.682	190.682	0	0
1205.6	281.082	161.461	161.461	161.461	161.461	161.461	161.461	161.461	0	0
1205.8	280.882	183.133	183.133	183.133	183.133	183.133	183.133	183.133	0	0
1206	280.682	209.3	209.3	209.3	209.3	209.3	209.3	209.3	0	0
1206.2	280.482	122.767	122.767	122.767	122.767	122.767	122.767	122.767	0	0
1206.4	280.282	163.923	163.923	163.923	163.923	163.923	163.923	163.923	0	0
1206.6	280.082	166.801	166.801	166.801	166.801	166.801	166.801	166.801	0	0
1206.8	279.882	142.393	142.393	142.393	142.393	142.393	142.393	142.393	0	0
1207	279.682	171.157	171.157	171.157	171.157	171.157	171.157	171.157	0	0
1207.2	279.482	62.3512	62.3512	62.3512	62.3512	62.3512	62.3512	62.3512	0	0
1207.4	279.282	150.011	150.011	150.011	150.011	150.011	150.011	150.011	0	0
1207.6	279.082	133.912	133.912	133.912	133.912	133.912	133.912	133.912	0	0
1207.8	278.882	91.6256	91.6256	91.6256	91.6256	91.6256	91.6256	91.6256	0	0