File: XPS/241019_C-3.2.csv
C1s Scan
	Characteristic Energy eV	1486.68	Acquisition Time s	0.05
KE_C1s Scan	BE_C1s Scan	CPS_C1s Scan	C-C/C-H_1_C1s Scan	C-O_2_C1s Scan	C=O_3_C1s Scan	O-C=O_4_C1s Scan	Background_C1s Scan	Envelope_C1s Scan	Normalised_Residual_C1s Scan	Residual_C1s Scan
1188.95	297.725	1813.58	1813.58	1813.58	1813.58	1813.58	1813.58	1813.58	0	0
1189.15	297.525	1952.84	1952.84	1952.84	1952.84	1952.84	1952.84	1952.84	0	0
1189.35	297.325	1738.41	1738.41	1738.41	1738.41	1738.41	1738.41	1738.41	0	0
1189.55	297.125	1868.95	1868.95	1868.95	1868.95	1868.95	1868.95	1868.95	0	0
1189.75	296.925	1691.77	1691.77	1691.77	1691.77	1691.77	1691.77	1691.77	0	0
1189.95	296.725	1941.44	1941.44	1941.44	1941.44	1941.44	1941.44	1941.44	0	0
1190.15	296.525	1451.67	1451.67	1451.67	1451.67	1451.67	1451.67	1451.67	0	0
1190.35	296.325	1353.64	1353.64	1353.64	1353.64	1353.64	1353.64	1353.64	0	0
1190.55	296.125	1512.5	1512.5	1512.5	1512.5	1512.5	1512.5	1512.5	0	0
1190.75	295.925	1532.88	1532.88	1532.88	1532.88	1532.88	1532.88	1532.88	0	0
1190.95	295.725	1191.4	1191.4	1191.4	1191.4	1191.4	1191.4	1191.4	0	0
1191.15	295.525	1662.28	1662.28	1662.28	1662.28	1662.28	1662.28	1662.28	0	0
1191.35	295.325	1322.73	1322.73	1322.73	1322.73	1322.73	1322.73	1322.73	0	0
1191.55	295.125	1311.55	1311.55	1311.55	1311.55	1311.55	1311.55	1311.55	0	0
1191.75	294.925	1260.81	1260.81	1260.81	1260.81	1260.81	1260.81	1260.81	0	0
1191.95	294.725	981.518	981.518	981.518	981.518	981.518	981.518	981.518	0	0
1192.15	294.525	1109	1109	1109	1109	1109	1109	1109	0	0
1192.35	294.325	983.7	983.7	983.7	983.7	983.7	983.7	983.7	0	0
1192.55	294.125	796.558	796.558	796.558	796.558	796.558	796.558	796.558	0	0
1192.75	293.925	778.854	778.854	778.854	778.854	778.854	778.854	778.854	0	0
1192.95	293.725	861.36	861.36	861.36	861.36	861.36	861.36	861.36	0	0
1193.15	293.525	762.9	762.9	762.9	762.9	762.9	762.9	762.9	0	0
1193.35	293.325	695.56	695.56	695.56	695.56	695.56	695.56	695.56	0	0
1193.55	293.125	544.512	544.512	544.512	544.512	544.512	544.512	544.512	0	0
1193.75	292.925	661.278	661.278	661.278	661.278	661.278	661.278	661.278	0	0
1193.95	292.725	274.67	274.67	274.67	274.67	274.67	274.67	274.67	0	0
1194.15	292.525	464.228	464.228	464.228	464.228	464.228	464.228	464.228	0	0
1194.35	292.325	322.416	322.416	322.416	322.416	322.417	322.416	322.417	0	0
1194.55	292.125	488.548	488.548	488.548	488.548	488.553	488.548	488.553	0	0
1194.75	291.925	273.698	273.698	273.698	273.698	273.715	273.698	273.715	0	0
1194.95	291.725	174.629	174.629	174.629	174.629	174.685	174.629	174.685	0	0
1195.15	291.525	306.55	306.55	306.55	306.55	306.723	306.55	306.723	0	0
1195.35	291.325	180.647	180.647	180.647	180.648	181.153	180.647	181.154	0	0
1195.55	291.125	313.738	313.738	313.738	313.741	315.114	313.738	315.117	0	0
1195.75	290.925	212.668	291.525	291.525	291.535	295.045	291.525	295.056	1.26327	4.11939
1195.95	290.725	426.272	291.54	291.54	291.577	299.908	291.54	299.945	-1.36816	-6.31633
1196.15	290.525	321.4	291.545	291.545	291.667	310.217	291.545	310.339	-0.137963	-0.553058
1196.35	290.325	335.978	291.552	291.552	291.924	330.276	291.552	330.648	-0.0650264	-0.26652
1196.55	290.125	349.77	291.557	291.557	292.62	366.592	291.557	367.656	0.213846	0.894287
1196.75	289.925	281.14	291.571	291.572	294.408	426.289	291.571	429.127	1.97355	7.39936
1196.95	289.725	609.566	291.6	291.604	298.682	515.54	291.6	522.626	-0.787401	-4.34702
1197.15	289.525	714.708	291.641	291.656	308.153	633.185	291.641	649.712	-0.543633	-3.24979
1197.35	289.325	1043.48	291.727	291.784	327.684	766.215	291.727	802.227	-1.66997	-12.0624
1197.55	289.125	720.442	291.809	292.003	364.843	886.385	291.809	959.613	1.99248	11.9585
1197.75	288.925	1294.23	291.931	292.55	429.981	957.703	291.931	1096.37	-1.22982	-9.8931
1197.95	288.725	993.246	292.055	293.915	534.117	955.481	292.055	1199.4	1.4627	10.3078
1198.15	288.525	1454.57	292.195	297.392	683.757	879.875	292.195	1276.64	-1.04324	-8.89685
1198.35	288.325	1565.36	292.351	305.981	872.637	758.188	292.351	1352.1	-1.20525	-10.6627
1198.55	288.125	1550.96	292.525	325.816	1073.19	625.73	292.524	1439.69	-0.631776	-5.56351
1198.75	287.925	1409.82	292.695	368.88	1237	509.784	292.693	1530.28	0.717391	6.02313
1198.95	287.725	1530.07	292.899	455.298	1311.99	422.93	292.88	1604.48	0.425373	3.72058
1199.15	287.525	1524.7	293.195	616.397	1270.47	365.042	293.076	1665.87	0.808421	7.05854
1199.35	287.325	1871.06	293.962	891.069	1128.34	330.335	293.288	1763.84	-0.55427	-5.36106
1199.55	287.125	2012	296.947	1318.1	933.251	311.261	293.527	1978.98	-0.164593	-1.65086
1199.75	286.925	2464.34	309.141	1910.22	737.477	301.761	293.821	2377.14	-0.392782	-4.36001
1199.95	286.725	2941.18	354.944	2624.84	575.391	297.498	294.186	2970.12	0.119316	1.44692
1200.15	286.525	3955.02	509.572	3336.82	458.761	295.994	294.698	3717.05	-0.846105	-11.8983
1200.35	286.325	4301.12	969.077	3855.76	383.996	295.736	295.264	4618.77	1.08305	15.8826
1200.55	286.125	6061.02	2166.11	4008.31	340.59	296.178	296.017	5923.14	-0.396006	-6.89382
1200.75	285.925	8048.06	4886.11	3736.68	317.988	297.131	297.08	8346.66	0.744269	14.93
1200.95	285.725	13596.8	10196.7	3142.21	307.925	298.804	298.789	13049.3	-1.05002	-27.3779
1201.15	285.525	21720.4	18822	2415	305.268	301.533	301.528	20939.2	-1.18525	-39.0598
1201.35	285.325	31308.8	29881.9	1731.78	307.151	305.726	305.725	31309.4	0.00072873	0.0288327
1201.55	285.125	40896.8	39746.6	1192.84	311.795	311.285	311.285	40628.7	-0.296494	-13.4074
1201.75	284.925	42469.6	43376.1	820.262	317.7	317.53	317.53	43879	1.52924	70.4693
1201.95	284.725	40208	38561.5	589.502	323.594	323.541	323.541	38827.5	-1.53941	-69.0235
1202.15	284.525	29699.6	28196.1	459.164	328.245	328.23	328.23	28327.1	-1.78085	-68.626
1202.35	284.325	16415.7	17349.1	391.083	330.96	330.955	330.955	17409.2	1.73402	49.6784
1202.55	284.125	8696.18	9226.37	358.207	332.422	332.421	332.421	9252.16	1.33315	27.799
1202.75	283.925	4845.48	4372.89	343.508	333.176	333.176	333.176	4383.22	-1.48492	-23.113
1202.95	283.725	2863.92	1950.38	337.445	333.575	333.575	333.575	1954.25	-3.8009	-45.4833
1203.15	283.525	1689.49	905.576	335.162	333.807	333.807	333.807	906.931	-4.25719	-39.1278
1203.35	283.325	1479.54	512.948	334.452	334.009	334.009	334.009	513.391	-5.61649	-48.3073
1203.55	283.125	1179.67	383.922	334.263	334.128	334.128	334.128	384.058	-5.17974	-39.7808
1203.75	282.925	710.018	346.514	334.229	334.19	334.19	334.19	346.553	-3.05009	-18.1733
1203.95	282.725	767.718	336.948	334.259	334.249	334.249	334.249	336.958	-3.47632	-21.538
1204.15	282.525	593.54	334.82	334.3	334.297	334.297	334.297	334.822	-2.37458	-12.9359
1204.35	282.325	511.974	334.425	334.335	334.335	334.335	334.335	334.426	-1.7546	-8.87741
1204.55	282.125	361.158	334.368	334.354	334.354	334.354	334.354	334.368	-0.315218	-1.33951
1204.75	281.925	404.828	334.367	334.365	334.365	334.365	334.365	334.367	-0.783068	-3.52306
1204.95	281.725	288.628	334.371	334.371	334.371	334.371	334.371	334.371	0.602063	2.28716
1205.15	281.525	301.568	334.375	334.375	334.375	334.375	334.375	334.375	0.422439	1.64037
1205.35	281.325	360.186	360.186	360.186	360.186	360.186	360.186	360.186	0	0
1205.55	281.125	309.994	309.994	309.994	309.994	309.994	309.994	309.994	0	0
1205.75	280.925	376.152	376.152	376.152	376.152	376.152	376.152	376.152	0	0
1205.95	280.725	243.616	243.616	243.616	243.616	243.616	243.616	243.616	0	0
1206.15	280.525	302.694	302.694	302.694	302.694	302.694	302.694	302.694	0	0
1206.35	280.325	247.56	247.56	247.56	247.56	247.56	247.56	247.56	0	0
1206.55	280.125	77.1198	77.1198	77.1198	77.1198	77.1198	77.1198	77.1198	0	0
1206.75	279.925	222.798	222.798	222.798	222.798	222.798	222.798	222.798	0	0
1206.95	279.725	259.698	259.698	259.698	259.698	259.698	259.698	259.698	0	0
1207.15	279.525	249.842	249.842	249.842	249.842	249.842	249.842	249.842	0	0
1207.35	279.325	178.253	178.253	178.253	178.253	178.253	178.253	178.253	0	0
1207.55	279.125	167.628	167.628	167.628	167.628	167.628	167.628	167.628	0	0
1207.75	278.925	256.124	256.124	256.124	256.124	256.124	256.124	256.124	0	0
1207.95	278.725	190.806	190.806	190.806	190.806	190.806	190.806	190.806	0	0