File: XPS/241019_191x195-2.2.csv
C1s Scan
	Characteristic Energy eV	1486.68	Acquisition Time s	0.05
KE_C1s Scan	BE_C1s Scan	CPS_C1s Scan	C-C/C-H_1_C1s Scan	C-O_2_C1s Scan	C=O_3_C1s Scan	O-C=O_4_C1s Scan	Background_C1s Scan	Envelope_C1s Scan	Normalised_Residual_C1s Scan	Residual_C1s Scan
1188.96	297.722	2126.08	2126.08	2126.08	2126.08	2126.08	2126.08	2126.08	0	0
1189.16	297.522	2067.92	2067.92	2067.92	2067.92	2067.92	2067.92	2067.92	0	0
1189.36	297.322	2016.48	2016.48	2016.48	2016.48	2016.48	2016.48	2016.48	0	0
1189.56	297.122	1943.33	1943.33	1943.33	1943.33	1943.33	1943.33	1943.33	0	0
1189.76	296.922	2183.62	2183.62	2183.62	2183.62	2183.62	2183.62	2183.62	0	0
1189.96	296.722	1843.98	1843.98	1843.98	1843.98	1843.98	1843.98	1843.98	0	0
1190.16	296.522	1940.93	1940.93	1940.93	1940.93	1940.93	1940.93	1940.93	0	0
1190.36	296.322	2221.34	2221.34	2221.34	2221.34	2221.34	2221.34	2221.34	0	0
1190.56	296.122	1470.91	1470.91	1470.91	1470.91	1470.91	1470.91	1470.91	0	0
1190.76	295.922	1902.42	1902.42	1902.42	1902.42	1902.42	1902.42	1902.42	0	0
1190.96	295.722	1364.05	1364.05	1364.05	1364.05	1364.05	1364.05	1364.05	0	0
1191.16	295.522	1610.69	1610.69	1610.69	1610.69	1610.69	1610.69	1610.69	0	0
1191.36	295.322	1335.58	1335.58	1335.58	1335.58	1335.58	1335.58	1335.58	0	0
1191.56	295.122	1420.73	1420.73	1420.73	1420.73	1420.73	1420.73	1420.73	0	0
1191.76	294.922	1171.24	1171.24	1171.24	1171.24	1171.24	1171.24	1171.24	0	0
1191.96	294.722	966.682	966.682	966.682	966.682	966.682	966.682	966.682	0	0
1192.16	294.522	1109.24	1109.24	1109.24	1109.24	1109.24	1109.24	1109.24	0	0
1192.36	294.322	928.234	928.234	928.234	928.234	928.234	928.234	928.234	0	0
1192.56	294.122	975.698	975.698	975.698	975.698	975.698	975.698	975.698	0	0
1192.76	293.922	970.136	970.136	970.136	970.136	970.136	970.136	970.136	0	0
1192.96	293.722	845.914	845.914	845.914	845.914	845.914	845.914	845.914	0	0
1193.16	293.522	914.076	914.076	914.076	914.076	914.076	914.076	914.076	0	0
1193.36	293.322	719.152	719.152	719.152	719.152	719.152	719.152	719.152	0	0
1193.56	293.122	751.812	751.812	751.812	751.812	751.812	751.812	751.812	0	0
1193.76	292.922	707.45	707.45	707.45	707.45	707.45	707.45	707.45	0	0
1193.96	292.722	515.59	515.59	515.59	515.59	515.591	515.59	515.591	0	0
1194.16	292.522	592.654	592.654	592.654	592.654	592.659	592.654	592.659	0	0
1194.36	292.322	400.444	400.444	400.444	400.444	400.461	400.444	400.461	0	0
1194.56	292.122	539.492	539.492	539.492	539.492	539.549	539.492	539.549	0	0
1194.76	291.922	573.454	573.454	573.454	573.454	573.633	573.454	573.634	0	0
1194.96	291.722	477.862	477.862	477.862	477.862	478.387	477.862	478.387	0	0
1195.16	291.522	546.068	546.068	546.068	546.069	547.513	546.068	547.514	0	0
1195.36	291.322	405.47	405.47	405.47	405.475	409.165	405.47	409.17	0	0
1195.56	291.122	378.406	378.406	378.406	378.427	387.282	378.406	387.303	0	0
1195.76	290.922	489.652	411.661	411.661	411.734	431.491	411.661	431.564	-0.586989	-2.90441
1195.96	290.722	307.098	411.666	411.666	411.903	453.169	411.666	453.406	1.86688	7.31542
1196.16	290.522	507.732	411.671	411.671	412.402	492.344	411.671	493.075	-0.14545	-0.732851
1196.36	290.322	535.708	411.676	411.676	413.761	557.708	411.676	559.793	0.232683	1.20424
1196.56	290.122	666.89	411.684	411.685	417.291	655.719	411.684	661.327	-0.0481722	-0.278169
1196.76	289.922	722.764	411.704	411.707	425.702	786.873	411.704	800.873	0.649666	3.90547
1196.96	289.722	1283.7	411.737	411.748	444.574	937.083	411.737	969.93	-1.95821	-15.6883
1197.16	289.522	1169.33	411.767	411.807	483.38	1075.65	411.767	1147.3	-0.144045	-1.10142
1197.36	289.322	1303.02	411.81	411.951	558.014	1162.74	411.81	1309.08	0.0375812	0.30334
1197.56	289.122	1304.45	411.861	412.336	688.941	1166.81	411.861	1444.36	0.866221	6.99564
1197.76	288.922	1448.38	411.913	413.396	900.025	1087.42	411.913	1577.02	0.755794	6.43176
1197.96	288.722	1386.19	411.966	416.315	1204.54	951.961	411.966	1748.88	2.17826	18.1345
1198.16	288.522	2263.76	412.055	423.911	1592.24	801.369	412.055	1993.41	-1.27054	-13.5173
1198.36	288.322	2439.8	412.153	442.487	2008	667.784	412.153	2293.96	-0.660202	-7.29187
1198.56	288.122	2607.98	412.258	484.545	2352.96	566.252	412.257	2579.24	-0.125847	-1.43708
1198.76	287.922	2309.14	412.369	573.707	2519.45	498.234	412.362	2766.68	2.12906	22.877
1198.96	287.722	2856.76	412.52	747.823	2444.73	456.852	412.472	2824.51	-0.134929	-1.6126
1199.16	287.522	2360.1	412.865	1062.89	2158.84	433.997	412.58	2830.86	2.16679	23.5378
1199.36	287.322	2724.56	414.22	1582.61	1757.4	422.33	412.715	2938.42	0.916152	10.693
1199.56	287.122	3410.12	419.91	2360.08	1349.75	416.9	412.853	3308.08	-0.390744	-5.10225
1199.76	286.922	4504.8	442.448	3388.71	1009.49	414.628	413.043	4016.14	-1.628	-24.433
1199.96	286.722	5135.38	522.609	4555.31	762.564	413.849	413.266	5014.53	-0.377086	-6.04243
1200.16	286.522	5735.72	775.863	5614.8	603.167	413.722	413.523	6166.98	1.27331	21.5631
1200.36	286.322	7028.52	1480.54	6252.81	509.425	413.896	413.831	7415.18	1.03128	19.3328
1200.56	286.122	9485.58	3200.93	6245.6	459.233	414.257	414.238	9077.31	-0.937354	-20.4136
1200.76	285.922	12032.7	6851.86	5593.71	434.516	414.79	414.785	12050.5	0.0362736	0.88973
1200.96	285.722	18126.4	13476.8	4529.57	423.675	415.574	415.572	17598.9	-0.875988	-26.3717
1201.16	285.522	26215.6	23362	3365.36	419.835	416.734	416.733	26313.7	0.135513	4.90621
1201.36	285.322	35417.6	34670.4	2343.38	419.475	418.363	418.362	36596.5	1.40072	58.9449
1201.56	285.122	43902.6	42970.5	1575.22	420.831	420.459	420.459	44125.6	0.237996	11.1507
1201.76	284.922	45501	43730.2	1063.04	422.801	422.685	422.685	44370.6	-1.18493	-56.518
1201.96	284.722	36785.8	36458.3	754.513	424.631	424.597	424.597	36788.2	0.0028217	0.121014
1202.16	284.522	24752.8	25296	584.259	425.961	425.952	425.952	25454.4	0.997093	35.0779
1202.36	284.322	14663.7	14964.8	497.695	426.797	426.794	426.794	15035.7	0.687086	18.6045
1202.56	284.122	8037.22	7763.67	456.882	427.221	427.221	427.221	7793.33	-0.6083	-12.1943
1202.76	283.922	4291.1	3668.34	439.055	427.46	427.46	427.46	3679.94	-2.08621	-30.5582
1202.96	283.722	1996.1	1694.5	431.802	427.564	427.564	427.564	1698.73	-1.48829	-14.8684
1203.16	283.522	1890.08	867.117	429.083	427.636	427.636	427.636	868.564	-5.25398	-51.0756
1203.36	283.322	1431.76	563.171	428.143	427.681	427.681	427.681	563.633	-5.13019	-43.4064
1203.56	283.122	1084.24	464.841	427.855	427.718	427.718	427.718	464.978	-4.20531	-30.9633
1203.76	282.922	682.652	436.795	427.776	427.737	427.737	427.737	436.834	-2.10378	-12.2909
1203.96	282.722	578.006	429.727	427.763	427.753	427.753	427.753	429.737	-1.37902	-7.41347
1204.16	282.522	658.036	428.145	427.765	427.763	427.763	427.763	428.147	-2.00391	-11.4944
1204.36	282.322	702.83	427.841	427.776	427.775	427.775	427.775	427.841	-2.3194	-13.7494
1204.56	282.122	349.11	427.793	427.783	427.783	427.783	427.783	427.793	0.941639	3.93415
1204.76	281.922	472.58	427.787	427.785	427.785	427.785	427.785	427.787	-0.460744	-2.23966
1204.96	281.722	362.862	427.789	427.789	427.789	427.789	427.789	427.79	0.762154	3.24638
1205.16	281.522	359.332	359.332	359.332	359.332	359.332	359.332	359.332	0	0
1205.36	281.322	246.642	246.642	246.642	246.642	246.642	246.642	246.642	0	0
1205.56	281.122	194.422	194.422	194.422	194.422	194.422	194.422	194.422	0	0
1205.76	280.922	219.252	219.252	219.252	219.252	219.252	219.252	219.252	0	0
1205.96	280.722	332.966	332.966	332.966	332.966	332.966	332.966	332.966	0	0
1206.16	280.522	396.782	396.782	396.782	396.782	396.782	396.782	396.782	0	0
1206.36	280.322	210.102	210.102	210.102	210.102	210.102	210.102	210.102	0	0
1206.56	280.122	349.114	349.114	349.114	349.114	349.114	349.114	349.114	0	0
1206.76	279.922	170.075	170.075	170.075	170.075	170.075	170.075	170.075	0	0
1206.96	279.722	309.286	309.286	309.286	309.286	309.286	309.286	309.286	0	0
1207.16	279.522	168.235	168.235	168.235	168.235	168.235	168.235	168.235	0	0
1207.36	279.322	261.466	261.466	261.466	261.466	261.466	261.466	261.466	0	0
1207.56	279.122	130.434	130.434	130.434	130.434	130.434	130.434	130.434	0	0
1207.76	278.922	173.898	173.898	173.898	173.898	173.898	173.898	173.898	0	0
1207.96	278.722	228.92	228.92	228.92	228.92	228.92	228.92	228.92	0	0