File: XPS/241019_191x195-3.1.csv
C1s Scan
	Characteristic Energy eV	1486.68	Acquisition Time s	0.05
KE_C1s Scan	BE_C1s Scan	CPS_C1s Scan	C-C/C-H_1_C1s Scan	C-O_2_C1s Scan	C=O_3_C1s Scan	O-C=O_4_C1s Scan	Background_C1s Scan	Envelope_C1s Scan	Normalised_Residual_C1s Scan	Residual_C1s Scan
1189.04	297.644	2963.5	2963.5	2963.5	2963.5	2963.5	2963.5	2963.5	0	0
1189.24	297.444	2898.32	2898.32	2898.32	2898.32	2898.32	2898.32	2898.32	0	0
1189.44	297.244	2378.1	2378.1	2378.1	2378.1	2378.1	2378.1	2378.1	0	0
1189.64	297.044	2517.32	2517.32	2517.32	2517.32	2517.32	2517.32	2517.32	0	0
1189.84	296.844	2341.42	2341.42	2341.42	2341.42	2341.42	2341.42	2341.42	0	0
1190.04	296.644	2445.68	2445.68	2445.68	2445.68	2445.68	2445.68	2445.68	0	0
1190.24	296.444	2393.8	2393.8	2393.8	2393.8	2393.8	2393.8	2393.8	0	0
1190.44	296.244	2031.44	2031.44	2031.44	2031.44	2031.44	2031.44	2031.44	0	0
1190.64	296.044	2403.18	2403.18	2403.18	2403.18	2403.18	2403.18	2403.18	0	0
1190.84	295.844	2130.54	2130.54	2130.54	2130.54	2130.54	2130.54	2130.54	0	0
1191.04	295.644	2210.3	2210.3	2210.3	2210.3	2210.3	2210.3	2210.3	0	0
1191.24	295.444	1844.08	1844.08	1844.08	1844.08	1844.08	1844.08	1844.08	0	0
1191.44	295.244	1589.81	1589.81	1589.81	1589.81	1589.81	1589.81	1589.81	0	0
1191.64	295.044	1574.86	1574.86	1574.86	1574.86	1574.86	1574.86	1574.86	0	0
1191.84	294.844	1564.23	1564.23	1564.23	1564.23	1564.23	1564.23	1564.23	0	0
1192.04	294.644	1444.17	1444.17	1444.17	1444.17	1444.17	1444.17	1444.17	0	0
1192.24	294.444	1516.61	1516.61	1516.61	1516.61	1516.61	1516.61	1516.61	0	0
1192.44	294.244	1268.53	1268.53	1268.53	1268.53	1268.53	1268.53	1268.53	0	0
1192.64	294.044	1656.47	1656.47	1656.47	1656.47	1656.47	1656.47	1656.47	0	0
1192.84	293.844	1362.34	1362.34	1362.34	1362.34	1362.34	1362.34	1362.34	0	0
1193.04	293.644	1023.7	1023.7	1023.7	1023.7	1023.7	1023.7	1023.7	0	0
1193.24	293.444	960.568	960.568	960.568	960.568	960.568	960.568	960.568	0	0
1193.44	293.244	874.102	874.102	874.102	874.102	874.102	874.102	874.102	0	0
1193.64	293.044	743.718	743.718	743.718	743.718	743.718	743.718	743.718	0	0
1193.84	292.844	626.212	626.212	626.212	626.212	626.212	626.212	626.212	0	0
1194.04	292.644	781.678	781.678	781.678	781.678	781.678	781.678	781.678	0	0
1194.24	292.444	738.8	738.8	738.8	738.8	738.802	738.8	738.802	0	0
1194.44	292.244	566.682	566.682	566.682	566.682	566.688	566.682	566.688	0	0
1194.64	292.044	554.798	554.798	554.798	554.798	554.82	554.798	554.82	0	0
1194.84	291.844	625.22	625.22	625.22	625.22	625.293	625.22	625.293	0	0
1195.04	291.644	444.374	444.374	444.374	444.374	444.603	444.374	444.604	0	0
1195.24	291.444	559.372	559.372	559.372	559.373	560.043	559.372	560.044	0	0
1195.44	291.244	405.468	405.468	405.468	405.47	407.318	405.468	407.32	0	0
1195.64	291.044	400.084	456.685	456.685	456.695	461.418	456.685	461.428	0.685771	3.06718
1195.84	290.844	420.126	456.693	456.693	456.728	468.074	456.693	468.109	0.523459	2.39915
1196.04	290.644	426.316	456.705	456.705	456.825	482.15	456.705	482.27	0.605967	2.79769
1196.24	290.444	441.702	456.72	456.72	457.098	510.017	456.72	510.395	0.730857	3.43465
1196.44	290.244	570.044	456.741	456.741	457.864	560.431	456.741	561.554	-0.0795161	-0.424516
1196.64	290.044	804.028	456.85	456.851	459.945	644.682	456.85	647.779	-1.23216	-7.81246
1196.84	289.844	928.93	457.001	457.006	465.02	771.202	457.001	779.225	-1.09832	-7.48525
1197.04	289.644	811.076	457.194	457.213	476.519	940.654	457.194	959.999	1.16927	7.44613
1197.24	289.444	988.152	457.374	457.445	501.047	1135.08	457.374	1178.82	1.35631	9.53356
1197.44	289.244	1465.29	457.668	457.918	549.52	1315.12	457.668	1407.22	-0.339239	-2.90371
1197.64	289.044	1447.09	457.996	458.814	638.423	1429	457.996	1610.24	0.959039	8.15771
1197.84	288.844	1753.68	458.419	460.924	787.241	1436	458.419	1767.32	0.0728801	0.682447
1198.04	288.644	1859.25	458.903	466.058	1014.08	1334.65	458.903	1896.99	0.195688	1.88676
1198.24	288.444	1771.41	459.408	478.551	1320.9	1160.37	459.408	2041	1.43226	13.4793
1198.44	288.244	2585.38	460.046	507.822	1679.83	965.975	460.046	2233.53	-1.54732	-17.5925
1198.64	288.044	2347.76	460.661	572.278	2021.28	793.171	460.66	2465.41	0.542944	5.88256
1198.84	287.844	2960.42	461.445	704.57	2248.76	661.965	461.437	2692.43	-1.10134	-13.3993
1199.04	287.644	2694.4	462.199	956.839	2284.46	574.025	462.138	2891.11	0.847368	9.83532
1199.24	287.444	3057.14	463.295	1398.62	2114.19	520.797	462.903	3108.2	0.206493	2.55299
1199.44	287.244	3612.02	466.162	2107.27	1800.8	491.904	463.956	3474.27	-0.512506	-6.88746
1199.64	287.044	4437.4	476.079	3126.37	1439.98	477.729	465.164	4124.66	-1.04981	-15.6372
1199.84	286.844	5472.48	514.407	4416.66	1113.11	472.002	466.714	5116.03	-1.07744	-17.8225
1200.04	286.644	6520.7	652.736	5791.13	861.948	470.657	468.582	6370.73	-0.415292	-7.4987
1200.24	286.444	7676.46	1097.39	6919.63	691.837	471.583	470.82	7767.98	0.233582	4.57619
1200.44	286.244	8542.46	2359.63	7446.97	588.747	473.664	473.403	9448.8	2.19272	45.3169
1200.64	286.044	12133.1	5461.29	7176.32	532.983	477.058	476.974	12216.7	0.16968	4.17929
1200.84	285.844	18719.1	12049.9	6216.95	507.907	482.536	482.51	17809.7	-1.48627	-45.4702
1201.04	285.644	29214.6	23734.2	4890.94	501.655	490.915	490.908	28145	-1.39929	-53.4801
1201.24	285.444	43784.2	40404.6	3559.63	508.145	503.894	503.892	43464.6	-0.341573	-15.9819
1201.44	285.244	58742.2	57710.3	2461.73	523.59	522.019	522.018	59651.6	0.83899	45.4692
1201.64	285.044	68743.2	67444.6	1676.78	544.62	544.077	544.076	68577.8	-0.141031	-8.26826
1201.84	284.844	65145.4	63649.9	1179.71	566.316	566.141	566.141	64263.6	-0.77252	-44.0896
1202.04	284.644	48834.4	48767.1	892.232	583.911	583.859	583.859	49075.6	0.24402	12.0579
1202.24	284.444	29463.2	30995.9	740.151	595.27	595.255	595.255	31140.8	2.18543	83.8805
1202.44	284.244	16034.7	16815.2	664.949	601.627	601.623	601.623	16878.5	1.4901	42.1921
1202.64	284.044	8678.46	8063.64	630.624	604.649	604.648	604.648	8089.62	-1.41338	-29.4419
1202.84	283.844	4609.18	3593.8	616.129	606.226	606.226	606.226	3603.7	-3.31167	-50.274
1203.04	283.644	3044.76	1662.13	610.62	607.067	607.067	607.067	1665.68	-5.58854	-68.9541
1203.24	283.444	2237.52	934.867	608.836	607.655	607.655	607.655	936.048	-6.15228	-65.0736
1203.44	283.244	1663.61	697.988	608.393	608.023	608.023	608.023	698.358	-5.29176	-48.2627
1203.64	283.044	1384.29	630.038	608.382	608.274	608.274	608.274	630.145	-4.53236	-37.707
1203.84	282.844	1020.2	613.078	608.448	608.418	608.418	608.418	613.107	-2.84993	-20.3546
1204.04	282.644	1093.62	609.395	608.523	608.516	608.516	608.516	609.402	-3.27413	-24.2111
1204.24	282.444	838.304	608.759	608.615	608.613	608.613	608.613	608.761	-1.77276	-11.4772
1204.44	282.244	703.566	608.665	608.644	608.643	608.643	608.643	608.665	-0.800025	-4.74505
1204.64	282.044	652.154	608.671	608.669	608.668	608.668	608.668	608.671	-0.380738	-2.17413
1204.84	281.844	666.41	608.699	608.699	608.699	608.699	608.699	608.699	-0.499887	-2.88554
1205.04	281.644	683.144	608.712	608.712	608.712	608.712	608.712	608.712	-0.636778	-3.7216
1205.24	281.444	421.202	421.202	421.202	421.202	421.202	421.202	421.202	0	0
1205.44	281.244	465.012	465.012	465.012	465.012	465.012	465.012	465.012	0	0
1205.64	281.044	447.946	447.946	447.946	447.946	447.946	447.946	447.946	0	0
1205.84	280.844	494.514	494.514	494.514	494.514	494.514	494.514	494.514	0	0
1206.04	280.644	314.166	314.166	314.166	314.166	314.166	314.166	314.166	0	0
1206.24	280.444	368.276	368.276	368.276	368.276	368.276	368.276	368.276	0	0
1206.44	280.244	402.658	402.658	402.658	402.658	402.658	402.658	402.658	0	0
1206.64	280.044	163.673	163.673	163.673	163.673	163.673	163.673	163.673	0	0
1206.84	279.844	316.03	316.03	316.03	316.03	316.03	316.03	316.03	0	0
1207.04	279.644	218.508	218.508	218.508	218.508	218.508	218.508	218.508	0	0
1207.24	279.444	287.618	287.618	287.618	287.618	287.618	287.618	287.618	0	0
1207.44	279.244	174.781	174.781	174.781	174.781	174.781	174.781	174.781	0	0
1207.64	279.044	333.59	333.59	333.59	333.59	333.59	333.59	333.59	0	0
1207.84	278.844	190.299	190.299	190.299	190.299	190.299	190.299	190.299	0	0
1208.04	278.644	231.206	231.206	231.206	231.206	231.206	231.206	231.206	0	0