File: XPS/241019_C-1.3.csv
C1s Scan
	Characteristic Energy eV	1486.68	Acquisition Time s	0.05
KE_C1s Scan	BE_C1s Scan	CPS_C1s Scan	C-C/C-H_1_C1s Scan	C-O_2_C1s Scan	C=O_3_C1s Scan	O-C=O_4_C1s Scan	Background_C1s Scan	Envelope_C1s Scan	Normalised_Residual_C1s Scan	Residual_C1s Scan
1189.21	297.467	2360.72	2360.72	2360.72	2360.72	2360.72	2360.72	2360.72	0	0
1189.41	297.267	2505.42	2505.42	2505.42	2505.42	2505.42	2505.42	2505.42	0	0
1189.61	297.067	2442.72	2442.72	2442.72	2442.72	2442.72	2442.72	2442.72	0	0
1189.81	296.867	2222.06	2222.06	2222.06	2222.06	2222.06	2222.06	2222.06	0	0
1190.01	296.667	2074.34	2074.34	2074.34	2074.34	2074.34	2074.34	2074.34	0	0
1190.21	296.467	2432.36	2432.36	2432.36	2432.36	2432.36	2432.36	2432.36	0	0
1190.41	296.267	2491.74	2491.74	2491.74	2491.74	2491.74	2491.74	2491.74	0	0
1190.61	296.067	2184.7	2184.7	2184.7	2184.7	2184.7	2184.7	2184.7	0	0
1190.81	295.867	1913.2	1913.2	1913.2	1913.2	1913.2	1913.2	1913.2	0	0
1191.01	295.667	1923.18	1923.18	1923.18	1923.18	1923.18	1923.18	1923.18	0	0
1191.21	295.467	1770.19	1770.19	1770.19	1770.19	1770.19	1770.19	1770.19	0	0
1191.41	295.267	1781.99	1781.99	1781.99	1781.99	1781.99	1781.99	1781.99	0	0
1191.61	295.067	2006.56	2006.56	2006.56	2006.56	2006.56	2006.56	2006.56	0	0
1191.81	294.867	1867.27	1867.27	1867.27	1867.27	1867.27	1867.27	1867.27	0	0
1192.01	294.667	2067.76	2067.76	2067.76	2067.76	2067.76	2067.76	2067.76	0	0
1192.21	294.467	1971.93	1971.93	1971.93	1971.93	1971.93	1971.93	1971.93	0	0
1192.41	294.267	2172.28	2172.28	2172.28	2172.28	2172.28	2172.28	2172.28	0	0
1192.61	294.067	1625.57	1625.57	1625.57	1625.57	1625.57	1625.57	1625.57	0	0
1192.81	293.867	1572.87	1572.87	1572.87	1572.87	1572.87	1572.87	1572.87	0	0
1193.01	293.667	1749.75	1749.75	1749.75	1749.75	1749.75	1749.75	1749.75	0	0
1193.21	293.467	1736.47	1736.47	1736.47	1736.47	1736.47	1736.47	1736.47	0	0
1193.41	293.267	1589.5	1589.5	1589.5	1589.5	1589.5	1589.5	1589.5	0	0
1193.61	293.067	1321.83	1321.83	1321.83	1321.83	1321.83	1321.83	1321.83	0	0
1193.81	292.867	1656.22	1656.22	1656.22	1656.22	1656.22	1656.22	1656.22	0	0
1194.01	292.667	1704.11	1704.11	1704.11	1704.11	1704.11	1704.11	1704.11	0	0
1194.21	292.467	1395.74	1395.74	1395.74	1395.74	1395.74	1395.74	1395.74	0	0
1194.41	292.267	1421.3	1421.3	1421.3	1421.3	1421.3	1421.3	1421.3	0	0
1194.61	292.067	1849.82	1849.82	1849.82	1849.82	1849.85	1849.82	1849.85	0	0
1194.81	291.867	1419.56	1505.2	1505.2	1505.2	1505.32	1505.2	1505.32	0.508948	4.28781
1195.01	291.667	1353.53	1505.19	1505.19	1505.19	1505.56	1505.19	1505.56	0.924017	7.60148
1195.21	291.467	1482.62	1505.18	1505.18	1505.18	1506.28	1505.18	1506.28	0.137412	1.18311
1195.41	291.267	1191.72	1505.14	1505.14	1505.14	1508.23	1505.14	1508.23	2.05014	15.8254
1195.61	291.067	1533.74	1505.14	1505.14	1505.14	1513.24	1505.14	1513.24	-0.117052	-1.02504
1195.81	290.867	1646.53	1505.1	1505.1	1505.1	1525	1505.1	1525.01	-0.669637	-6.07588
1196.01	290.667	1521.59	1505.08	1505.08	1505.1	1550.79	1505.08	1550.81	0.167516	1.46113
1196.21	290.467	1236.11	1505.05	1505.05	1505.11	1603.09	1505.05	1603.15	2.33441	18.3523
1196.41	290.267	1745.29	1505.02	1505.02	1505.2	1701.31	1505.02	1701.5	-0.234388	-2.18955
1196.61	290.067	1793.7	1504.99	1504.99	1505.5	1870.47	1504.99	1870.99	0.408094	3.86473
1196.81	289.867	2068.88	1504.92	1504.93	1506.25	2136.57	1504.92	2137.91	0.339354	3.45148
1197.01	289.667	2743.38	1504.76	1504.79	1507.98	2510.81	1504.76	2514.06	-0.97901	-11.4661
1197.21	289.467	2977.28	1504.5	1504.6	1511.76	2972.07	1504.5	2979.44	0.00884301	0.107893
1197.41	289.267	3414.16	1504.17	1504.5	1519.51	3446.06	1504.17	3461.74	0.182076	2.37891
1197.61	289.067	3622.08	1503.77	1504.8	1533.9	3812.01	1503.77	3843.17	0.821442	11.0546
1197.81	288.867	3983.92	1503.32	1506.26	1558.48	3952.58	1503.32	4010.68	0.0948151	1.33819
1198.01	288.667	4564.28	1502.81	1510.68	1596.18	3812.62	1502.8	3913.88	-2.15269	-32.5201
1198.21	288.467	3582.5	1502.38	1522.1	1648.09	3446.79	1502.38	3612.23	0.111053	1.48631
1198.41	288.267	3196.44	1502.06	1548.17	1709.62	2972.43	1502.04	3226.15	0.117497	1.48541
1198.61	288.067	2463.86	1501.87	1602.71	1769.39	2510.36	1501.8	2878.94	1.86986	20.7541
1198.81	287.867	2330.9	1501.96	1707.43	1811.06	2135.12	1501.63	2650.7	1.48116	15.99
1199.01	287.667	2854.18	1502.75	1892.89	1820.08	1868.18	1501.41	2579.66	-1.149	-13.726
1199.21	287.467	2664.66	1506.08	2191.72	1793.29	1698.23	1501.2	2685.74	0.0912929	1.05376
1199.41	287.267	3145.5	1517.35	2627.37	1740.07	1599.39	1500.93	2981.41	-0.654234	-8.20471
1199.61	287.067	3902.56	1551.22	3185.39	1676.85	1546.43	1500.51	3458.37	-1.58995	-22.2097
1199.81	286.867	3788.76	1644.02	3792.8	1618.33	1520.1	1500.1	4074.97	1.03974	14.3106
1200.01	286.667	4880.96	1874.92	4310.93	1572.22	1507.65	1499.51	4767.2	-0.364088	-5.68779
1200.21	286.467	5131.22	2400.19	4577.26	1540.12	1501.93	1498.82	5523.03	1.22307	19.5905
1200.41	286.267	6207.48	3480.91	4499.42	1519.79	1499.1	1498	6505.23	0.845039	14.8874
1200.61	286.067	8171.62	5482.53	4102.15	1507.52	1497.2	1496.83	8098.91	-0.179854	-3.63546
1200.81	285.867	11032.1	8778.87	3523.33	1500.13	1495.34	1495.22	10812	-0.46858	-11.0052
1201.01	285.667	15253.7	13500.1	2921.11	1494.98	1492.91	1492.88	14930.4	-0.585192	-16.1611
1201.21	285.467	19284.3	19151.6	2407.98	1490.55	1489.72	1489.71	20070.7	1.26626	39.3196
1201.41	285.267	25123	24365.8	2029.25	1485.89	1485.57	1485.57	24909.8	-0.300808	-10.6613
1201.61	285.067	26468.6	27261.7	1778.87	1480.99	1480.88	1480.88	27559.8	1.49977	54.5602
1201.81	284.867	27117.8	26565.3	1627.93	1476.05	1476.02	1476.02	26717.3	-0.543881	-20.027
1202.01	284.667	22720	22602	1544.05	1471.84	1471.83	1471.83	22674.3	-0.0678531	-2.28696
1202.21	284.467	17311.7	17014	1500.73	1468.69	1468.68	1468.68	17046.1	-0.451372	-13.2797
1202.41	284.267	10978.3	11587.1	1479.91	1466.61	1466.61	1466.61	11600.4	1.32753	31.1027
1202.61	284.067	8133.96	7368.97	1470.44	1465.28	1465.28	1465.28	7374.12	-1.88388	-37.9918
1202.81	283.867	4478.02	4580.82	1466.55	1464.68	1464.68	1464.68	4582.69	0.349772	5.23375
1203.01	283.667	3509.52	2962.5	1464.9	1464.26	1464.26	1464.26	2963.13	-2.06234	-27.3193
1203.21	283.467	2536.12	2124.27	1464.27	1464.06	1464.06	1464.06	2124.47	-1.82779	-20.5825
1203.41	283.267	2012.9	1730.94	1463.98	1463.92	1463.92	1463.92	1731	-1.40496	-14.0948
1203.61	283.067	1746	1563.03	1463.83	1463.81	1463.81	1463.81	1563.04	-0.97908	-9.148
1203.81	282.867	1853.91	1497.63	1463.76	1463.76	1463.76	1463.76	1497.64	-1.85021	-17.8135
1204.01	282.667	1757	1474.34	1463.71	1463.71	1463.71	1463.71	1474.34	-1.50785	-14.1328
1204.21	282.467	1344.31	1466.75	1463.69	1463.69	1463.69	1463.69	1466.75	0.746763	6.12233
1204.41	282.267	1503.99	1464.48	1463.67	1463.67	1463.67	1463.67	1464.48	-0.227801	-1.97544
1204.61	282.067	1309.54	1463.85	1463.65	1463.65	1463.65	1463.65	1463.85	0.953477	7.71534
1204.81	281.867	1393.24	1463.68	1463.63	1463.63	1463.63	1463.63	1463.68	0.421949	3.52175
1205.01	281.667	1465.25	1463.64	1463.63	1463.63	1463.63	1463.63	1463.64	-0.00944941	-0.080881
1205.21	281.467	1399.75	1463.6	1463.6	1463.6	1463.6	1463.6	1463.6	0.381606	3.19246
1205.41	281.267	1603.52	1463.58	1463.58	1463.58	1463.58	1463.58	1463.58	-0.781429	-6.99699
1205.61	281.067	1288.48	1288.48	1288.48	1288.48	1288.48	1288.48	1288.48	0	0
1205.81	280.867	1287.75	1287.75	1287.75	1287.75	1287.75	1287.75	1287.75	0	0
1206.01	280.667	1447.25	1447.25	1447.25	1447.25	1447.25	1447.25	1447.25	0	0
1206.21	280.467	1534.18	1534.18	1534.18	1534.18	1534.18	1534.18	1534.18	0	0
1206.41	280.267	1284.74	1284.74	1284.74	1284.74	1284.74	1284.74	1284.74	0	0
1206.61	280.067	1010.6	1010.6	1010.6	1010.6	1010.6	1010.6	1010.6	0	0
1206.81	279.867	1313.06	1313.06	1313.06	1313.06	1313.06	1313.06	1313.06	0	0
1207.01	279.667	1349.21	1349.21	1349.21	1349.21	1349.21	1349.21	1349.21	0	0
1207.21	279.467	1099.24	1099.24	1099.24	1099.24	1099.24	1099.24	1099.24	0	0
1207.41	279.267	931.756	931.756	931.756	931.756	931.756	931.756	931.756	0	0
1207.61	279.067	967.094	967.094	967.094	967.094	967.094	967.094	967.094	0	0
1207.81	278.867	1457.15	1457.15	1457.15	1457.15	1457.15	1457.15	1457.15	0	0
1208.01	278.667	1230.23	1230.23	1230.23	1230.23	1230.23	1230.23	1230.23	0	0
1208.21	278.467	1206.35	1206.35	1206.35	1206.35	1206.35	1206.35	1206.35	0	0