File: XPS/250418_195-1.1.csv
C1s Scan
	Characteristic Energy eV	1486.68	Acquisition Time s	0.05
KE_C1s Scan	BE_C1s Scan	CPS_C1s Scan	C-C/C-H_1_C1s Scan	C-O_2_C1s Scan	C=O_3_C1s Scan	O-C=O_4_C1s Scan	Background_C1s Scan	Envelope_C1s Scan	Normalised_Residual_C1s Scan	Residual_C1s Scan
1189.46	297.216	1890.03	1890.03	1890.03	1890.03	1890.03	1890.03	1890.03	0	0
1189.66	297.016	1660.04	1660.04	1660.04	1660.04	1660.04	1660.04	1660.04	0	0
1189.86	296.816	1890.05	1890.05	1890.05	1890.05	1890.05	1890.05	1890.05	0	0
1190.06	296.616	1752.51	1752.51	1752.51	1752.51	1752.51	1752.51	1752.51	0	0
1190.26	296.416	1614.47	1614.47	1614.47	1614.47	1614.47	1614.47	1614.47	0	0
1190.46	296.216	2041.24	2041.24	2041.24	2041.24	2041.24	2041.24	2041.24	0	0
1190.66	296.016	1438.32	1438.32	1438.32	1438.32	1438.32	1438.32	1438.32	0	0
1190.86	295.816	1863	1863	1863	1863	1863	1863	1863	0	0
1191.06	295.616	1933.09	1933.09	1933.09	1933.09	1933.09	1933.09	1933.09	0	0
1191.26	295.416	2173	2173	2173	2173	2173	2173	2173	0	0
1191.46	295.216	1927.4	1927.4	1927.4	1927.4	1927.4	1927.4	1927.4	0	0
1191.66	295.016	1667.74	1667.74	1667.74	1667.74	1667.74	1667.74	1667.74	0	0
1191.86	294.816	1836.04	1836.04	1836.04	1836.04	1836.04	1836.04	1836.04	0	0
1192.06	294.616	1741.35	1741.35	1741.35	1741.35	1741.35	1741.35	1741.35	0	0
1192.26	294.416	1922.07	1922.07	1922.07	1922.07	1922.07	1922.07	1922.07	0	0
1192.46	294.216	1526.35	1526.35	1526.35	1526.35	1526.35	1526.35	1526.35	0	0
1192.66	294.016	1611.91	1611.91	1611.91	1611.91	1611.91	1611.91	1611.91	0	0
1192.86	293.816	2215.12	2215.12	2215.12	2215.12	2215.12	2215.12	2215.12	0	0
1193.06	293.616	1512.2	1512.2	1512.2	1512.2	1512.2	1512.2	1512.2	0	0
1193.26	293.416	1740.74	1740.74	1740.74	1740.74	1740.74	1740.74	1740.74	0	0
1193.46	293.216	1651.77	1651.77	1651.77	1651.77	1651.77	1651.77	1651.77	0	0
1193.66	293.016	1768.73	1768.73	1768.73	1768.73	1768.73	1768.73	1768.73	0	0
1193.86	292.816	1592.17	1592.17	1592.17	1592.17	1592.17	1592.17	1592.17	0	0
1194.06	292.616	1982.96	1982.96	1982.96	1982.96	1982.97	1982.96	1982.97	0	0
1194.26	292.416	1408.11	1408.11	1408.11	1408.11	1408.13	1408.11	1408.13	0	0
1194.46	292.216	1370.72	1370.72	1370.72	1370.72	1370.78	1370.72	1370.78	0	0
1194.66	292.016	1654.08	1654.08	1654.08	1654.08	1654.26	1654.08	1654.26	0	0
1194.86	291.816	1182.13	1182.13	1182.13	1182.13	1182.61	1182.13	1182.61	0	0
1195.06	291.616	1502.5	1502.5	1502.5	1502.5	1503.74	1502.5	1503.74	0	0
1195.26	291.416	1539.6	1539.6	1539.6	1539.61	1542.66	1539.6	1542.66	0	0
1195.46	291.216	1563.73	1563.73	1563.73	1563.73	1570.86	1563.73	1570.86	0	0
1195.66	291.016	1671.8	1562.96	1562.96	1562.98	1578.7	1562.96	1578.71	-0.509088	-4.65447
1195.86	290.816	1497.21	1562.77	1562.77	1562.81	1595.62	1562.77	1595.66	0.568902	4.92226
1196.06	290.616	1803.3	1562.57	1562.57	1562.68	1627.37	1562.57	1627.48	-0.925787	-8.79082
1196.26	290.416	1340.92	1562.37	1562.37	1562.65	1683.02	1562.37	1683.3	2.09071	17.1191
1196.46	290.216	1478.28	1562.2	1562.21	1562.89	1773.89	1562.2	1774.57	1.72313	14.8143
1196.66	290.016	1506.61	1562.13	1562.13	1563.7	1911.06	1562.13	1912.64	2.33906	20.3015
1196.86	289.816	1972.22	1561.72	1561.74	1565.17	2099.92	1561.72	2103.39	0.660439	6.55837
1197.06	289.616	2018.48	1561	1561.06	1568.12	2333.61	1561	2340.79	1.60415	16.1155
1197.26	289.416	2330.38	1559.88	1560.06	1573.79	2585.24	1559.88	2599.33	1.24579	13.4475
1197.46	289.216	2858.48	1558.52	1559.03	1584.15	2807.55	1558.52	2833.68	-0.103702	-1.23976
1197.66	289.016	3268.14	1556.64	1557.98	1601.11	2944.17	1556.64	2989.99	-1.08796	-13.9074
1197.86	288.816	3157.46	1554.73	1558.1	1627.21	2954.74	1554.73	3030.59	-0.504861	-6.34345
1198.06	288.616	3026.32	1553.19	1561.2	1663.62	2835.71	1553.19	2954.15	-0.29335	-3.60852
1198.26	288.416	2530.3	1551.9	1569.91	1708.31	2622.21	1551.9	2796.63	1.18392	13.3166
1198.46	288.216	2399.62	1550.92	1589.18	1755.44	2369.65	1550.9	2612.5	0.971757	10.6442
1198.66	288.016	2139.18	1550.16	1626.97	1795.24	2128.33	1550.05	2450.54	1.5053	15.5679
1198.86	287.816	2254.2	1549.48	1694.98	1816.82	1928.74	1549.05	2342.85	0.417523	4.43263
1199.06	287.616	2235.58	1549.68	1809.19	1813.65	1781.23	1548.16	2309.27	0.34848	3.68432
1199.26	287.416	2446.74	1552.36	1986.45	1786.44	1681.67	1547.34	2364.91	-0.369935	-4.0917
1199.46	287.216	2660.22	1561.53	2238.36	1742.52	1619.07	1546.16	2523.02	-0.594821	-6.86009
1199.66	287.016	2966.64	1588.12	2562	1692.61	1581.95	1544.6	2790.89	-0.721509	-8.78738
1199.86	286.816	3083.98	1656.69	2928.37	1645.96	1560.89	1542.81	3163.48	0.320114	3.97507
1200.06	286.616	3580.04	1815.92	3276.4	1607.36	1548.74	1540.46	3627.03	0.175591	2.34926
1200.26	286.416	3796.86	2153.32	3525.08	1578.45	1541.44	1537.86	4184.72	1.40751	19.3932
1200.46	286.216	4911.42	2802.41	3602.92	1557.74	1536.07	1534.6	4895.34	-0.0513092	-0.804051
1200.66	286.016	5490.02	3927.78	3484.71	1543.06	1531.2	1530.63	5894.86	1.22174	20.2419
1200.86	285.816	7772.6	5661.66	3203.91	1530.62	1524.53	1524.32	7347.76	-1.07752	-21.242
1201.06	285.616	10456.5	7980.58	2835.77	1518.28	1515.33	1515.26	9304.19	-2.51972	-57.6143
1201.26	285.416	11510.6	10554.5	2460.75	1505.8	1504.45	1504.43	11512.2	0.00340064	0.0815822
1201.46	285.216	12824.3	12705.6	2134.41	1492.55	1491.97	1491.96	13348.6	1.03533	26.2167
1201.66	285.016	13209.2	13654.7	1881.45	1478.89	1478.65	1478.65	14057.7	1.65087	42.4263
1201.86	284.816	12769.8	12998.9	1702.11	1465.38	1465.29	1465.29	13235.8	0.922129	23.3007
1202.06	284.616	11857.6	11012.8	1584.71	1453.74	1453.71	1453.71	11143.8	-1.46567	-35.6878
1202.26	284.416	8573.36	8440.37	1513.13	1444.79	1444.78	1444.78	8508.73	-0.156069	-3.2313
1202.46	284.216	6141.1	6013.12	1472.64	1438.97	1438.96	1438.96	6046.81	-0.269049	-4.71454
1202.66	284.016	4226.96	4138.26	1451.32	1435.64	1435.63	1435.63	4153.95	-0.251105	-3.65052
1202.86	283.816	3597.36	2889.45	1439.98	1433.07	1433.07	1433.07	2896.37	-2.6134	-35.0496
1203.06	283.616	2908.16	2151.33	1434.22	1431.34	1431.34	1431.34	2154.21	-3.1262	-37.6974
1203.26	283.416	2209.94	1758.32	1431.66	1430.52	1430.52	1430.52	1759.46	-2.14276	-22.5242
1203.46	283.216	2009.64	1567.59	1430.27	1429.84	1429.84	1429.84	1568.01	-2.20284	-22.0815
1203.66	283.016	1812.47	1483.08	1429.75	1429.6	1429.6	1429.6	1483.23	-1.72927	-16.462
1203.86	282.816	1812.93	1448.33	1429.19	1429.14	1429.14	1429.14	1448.38	-1.91445	-18.2272
1204.06	282.616	1635.55	1435.21	1428.86	1428.84	1428.84	1428.84	1435.23	-1.10758	-10.016
1204.26	282.416	1614.6	1430.67	1428.72	1428.72	1428.72	1428.72	1430.67	-1.02351	-9.19626
1204.46	282.216	1473.25	1429.2	1428.65	1428.65	1428.65	1428.65	1429.2	-0.256627	-2.20256
1204.66	282.016	1462.54	1428.74	1428.59	1428.59	1428.59	1428.59	1428.74	-0.197645	-1.69015
1204.86	281.816	1712.84	1428.39	1428.36	1428.36	1428.36	1428.36	1428.39	-1.53685	-14.2225
1205.06	281.616	1717.38	1428.12	1428.11	1428.11	1428.11	1428.11	1428.12	-1.56076	-14.4629
1205.26	281.416	1318.73	1427.94	1427.94	1427.94	1427.94	1427.94	1427.94	0.672505	5.46082
1205.46	281.216	1535.18	1427.81	1427.81	1427.81	1427.81	1427.81	1427.81	-0.612748	-5.36841
1205.66	281.016	1474.83	1427.71	1427.71	1427.71	1427.71	1427.71	1427.71	-0.274365	-2.35605
1205.86	280.816	1520.51	1520.51	1520.51	1520.51	1520.51	1520.51	1520.51	0	0
1206.06	280.616	1274.07	1274.07	1274.07	1274.07	1274.07	1274.07	1274.07	0	0
1206.26	280.416	1089.36	1089.36	1089.36	1089.36	1089.36	1089.36	1089.36	0	0
1206.46	280.216	1445.39	1445.39	1445.39	1445.39	1445.39	1445.39	1445.39	0	0
1206.66	280.016	1438.83	1438.83	1438.83	1438.83	1438.83	1438.83	1438.83	0	0
1206.86	279.816	1247.34	1247.34	1247.34	1247.34	1247.34	1247.34	1247.34	0	0
1207.06	279.616	1238.26	1238.26	1238.26	1238.26	1238.26	1238.26	1238.26	0	0
1207.26	279.416	1247.56	1247.56	1247.56	1247.56	1247.56	1247.56	1247.56	0	0
1207.46	279.216	1317.02	1317.02	1317.02	1317.02	1317.02	1317.02	1317.02	0	0
1207.66	279.016	1390.53	1390.53	1390.53	1390.53	1390.53	1390.53	1390.53	0	0
1207.86	278.816	1562.21	1562.21	1562.21	1562.21	1562.21	1562.21	1562.21	0	0
1208.06	278.616	1291.18	1291.18	1291.18	1291.18	1291.18	1291.18	1291.18	0	0
1208.26	278.416	1286.8	1286.8	1286.8	1286.8	1286.8	1286.8	1286.8	0	0
1208.46	278.216	1399.7	1399.7	1399.7	1399.7	1399.7	1399.7	1399.7	0	0