File: XPS/250418_191x195-2.1.csv
C1s Scan
	Characteristic Energy eV	1486.68	Acquisition Time s	0.05
KE_C1s Scan	BE_C1s Scan	CPS_C1s Scan	C-C/C-H_1_C1s Scan	C-O_2_C1s Scan	C=O_3_C1s Scan	O-C=O_4_C1s Scan	Background_C1s Scan	Envelope_C1s Scan	Normalised_Residual_C1s Scan	Residual_C1s Scan
1189.35	297.331	1645.82	1645.82	1645.82	1645.82	1645.82	1645.82	1645.82	0	0
1189.55	297.131	1596.31	1596.31	1596.31	1596.31	1596.31	1596.31	1596.31	0	0
1189.75	296.931	1833.46	1833.46	1833.46	1833.46	1833.46	1833.46	1833.46	0	0
1189.95	296.731	1565.58	1565.58	1565.58	1565.58	1565.58	1565.58	1565.58	0	0
1190.15	296.531	1870.29	1870.29	1870.29	1870.29	1870.29	1870.29	1870.29	0	0
1190.35	296.331	1682.19	1682.19	1682.19	1682.19	1682.19	1682.19	1682.19	0	0
1190.55	296.131	1425.31	1425.31	1425.31	1425.31	1425.31	1425.31	1425.31	0	0
1190.75	295.931	1757.51	1757.51	1757.51	1757.51	1757.51	1757.51	1757.51	0	0
1190.95	295.731	1612.4	1612.4	1612.4	1612.4	1612.4	1612.4	1612.4	0	0
1191.15	295.531	1496.17	1496.17	1496.17	1496.17	1496.17	1496.17	1496.17	0	0
1191.35	295.331	1499.02	1499.02	1499.02	1499.02	1499.02	1499.02	1499.02	0	0
1191.55	295.131	1613.77	1613.77	1613.77	1613.77	1613.77	1613.77	1613.77	0	0
1191.75	294.931	1208.95	1208.95	1208.95	1208.95	1208.95	1208.95	1208.95	0	0
1191.95	294.731	1462.13	1462.13	1462.13	1462.13	1462.13	1462.13	1462.13	0	0
1192.15	294.531	1450.08	1450.08	1450.08	1450.08	1450.08	1450.08	1450.08	0	0
1192.35	294.331	1669.66	1669.66	1669.66	1669.66	1669.66	1669.66	1669.66	0	0
1192.55	294.131	1385.8	1385.8	1385.8	1385.8	1385.8	1385.8	1385.8	0	0
1192.75	293.931	1407.74	1407.74	1407.74	1407.74	1407.74	1407.74	1407.74	0	0
1192.95	293.731	1375.77	1375.77	1375.77	1375.77	1375.77	1375.77	1375.77	0	0
1193.15	293.531	1280.89	1280.89	1280.89	1280.89	1280.89	1280.89	1280.89	0	0
1193.35	293.331	1221.87	1221.87	1221.87	1221.87	1221.87	1221.87	1221.87	0	0
1193.55	293.131	1434.46	1434.46	1434.46	1434.46	1434.46	1434.46	1434.46	0	0
1193.75	292.931	1230.28	1288.78	1288.78	1288.78	1288.78	1288.78	1288.78	0.372962	2.92517
1193.95	292.731	1329.94	1288.73	1288.73	1288.73	1288.73	1288.73	1288.73	-0.25267	-2.06041
1194.15	292.531	1242.41	1288.65	1288.65	1288.65	1288.67	1288.65	1288.67	0.293423	2.31266
1194.35	292.331	985.504	1288.51	1288.51	1288.51	1288.55	1288.51	1288.55	2.15858	15.1524
1194.55	292.131	1179.37	1288.47	1288.47	1288.47	1288.58	1288.47	1288.58	0.71107	5.46038
1194.75	291.931	1176.75	1288.41	1288.41	1288.41	1288.71	1288.41	1288.71	0.729825	5.59816
1194.95	291.731	1283.42	1288.36	1288.36	1288.36	1289.12	1288.36	1289.12	0.0356262	0.28539
1195.15	291.531	1269.33	1288.33	1288.33	1288.33	1290.18	1288.33	1290.18	0.130879	1.04266
1195.35	291.331	1063.71	1288.25	1288.25	1288.25	1292.49	1288.25	1292.49	1.56853	11.439
1195.55	291.131	999.608	1288.11	1288.11	1288.12	1297.32	1288.11	1297.33	2.10564	14.8862
1195.75	290.931	1265.12	1288.02	1288.02	1288.05	1307.06	1288.02	1307.09	0.263847	2.09847
1195.95	290.731	1181.1	1287.97	1287.97	1288.04	1325.32	1287.97	1325.39	0.93882	7.21456
1196.15	290.531	1278.52	1287.9	1287.9	1288.08	1357.29	1287.9	1357.47	0.493752	3.94773
1196.35	290.331	1272.91	1287.88	1287.89	1288.31	1409.85	1287.88	1410.27	0.860934	6.86836
1196.55	290.131	1276.33	1287.88	1287.89	1288.84	1490.29	1287.88	1491.26	1.3452	10.7462
1196.75	289.931	1688.9	1287.67	1287.69	1289.74	1603.97	1287.67	1606.06	-0.450739	-4.14202
1196.95	289.731	1444.54	1287.53	1287.59	1291.74	1751.03	1287.53	1755.3	1.8283	15.5381
1197.15	289.531	1854.45	1287.29	1287.46	1295.42	1920.15	1287.29	1928.45	0.384234	3.69989
1197.35	289.331	2332.4	1286.79	1287.25	1301.7	2087.03	1286.79	2102.39	-1.06494	-11.5004
1197.55	289.131	2292.7	1286.23	1287.41	1312.07	2217.56	1286.23	2244.58	-0.224701	-2.40582
1197.75	288.931	2438.66	1285.55	1288.44	1327.82	2278.24	1285.55	2323.4	-0.521895	-5.76293
1197.95	288.731	2340.36	1284.83	1291.52	1349.84	2250.9	1284.83	2322.6	-0.0820697	-0.887787
1198.15	288.531	2359.48	1284.2	1298.96	1377.81	2143.99	1284.2	2252.37	-0.49309	-5.35573
1198.35	288.331	2209.06	1283.56	1314.48	1409.03	1986.28	1283.56	2142.68	-0.315822	-3.31919
1198.55	288.131	1764.49	1283.21	1344.61	1438.64	1813.72	1283.19	2030.62	1.41667	13.3065
1198.75	287.931	1840.85	1282.91	1398.41	1459.81	1655.1	1282.81	1947.8	0.557361	5.34726
1198.95	287.731	1720.43	1282.87	1488.44	1466.88	1526.86	1282.49	1917.58	1.0628	9.85727
1199.15	287.531	2071.12	1283.37	1628.91	1457.51	1432.85	1282.02	1956.57	-0.56284	-5.7276
1199.35	287.331	2305.16	1286.01	1832.45	1434.34	1369.35	1281.55	2077.5	-1.06028	-11.383
1199.55	287.131	2411.12	1294.61	2101.59	1403.26	1329.27	1280.95	2285.89	-0.570292	-6.26169
1199.75	286.931	2754.4	1318.78	2421.06	1370.73	1305.29	1280.12	2575.51	-0.762177	-8.94446
1199.95	286.731	3045.58	1380.29	2750.72	1341.6	1291.54	1279.1	2926.85	-0.481079	-5.93658
1200.15	286.531	2984.34	1522.72	3027.86	1318.31	1283.8	1277.95	3318.84	1.36915	16.7248
1200.35	286.331	3430.46	1823.73	3183.25	1301.29	1279.37	1276.77	3757.35	1.24799	16.3446
1200.55	286.131	4423.52	2401.76	3172.99	1289.07	1276.09	1274.99	4314.94	-0.365055	-5.42909
1200.75	285.931	5288.54	3403.34	2999.92	1280.4	1273.19	1272.75	5138.6	-0.461031	-7.49692
1200.95	285.731	6726.44	4947.27	2711.18	1273.68	1269.91	1269.74	6392.81	-0.909606	-16.6813
1201.15	285.531	8114.48	7012.84	2374.87	1267.52	1265.66	1265.6	8124.09	0.0238594	0.480589
1201.35	285.331	10527.5	9305.99	2052.7	1261.24	1260.38	1260.35	10099.2	-0.933274	-21.4119
1201.55	285.131	11291.9	11224.1	1782.81	1254.45	1254.07	1254.06	11753.2	0.970818	23.0678
1201.75	284.931	12088.8	12074.2	1578.61	1247.52	1247.36	1247.36	12405.6	0.644403	15.8429
1201.95	284.731	10924	11498	1436.75	1241.27	1241.21	1241.21	11693.6	1.64643	38.4785
1202.15	284.531	10176.8	9737.11	1344.51	1235.49	1235.46	1235.46	9846.18	-0.732881	-16.532
1202.35	284.331	7364.38	7453.6	1288.9	1231.32	1231.31	1231.31	7511.2	0.382568	7.34112
1202.55	284.131	5162.34	5297.29	1257.35	1228.46	1228.46	1228.46	5326.19	0.509931	8.19257
1202.75	283.931	4330.7	3630.63	1240.09	1226.34	1226.34	1226.34	3644.38	-2.33202	-34.316
1202.95	283.731	2936.6	2520.82	1231.31	1225.1	1225.1	1225.1	2527.02	-1.69005	-20.4789
1203.15	283.531	2085.16	1865.03	1227.09	1224.43	1224.43	1224.43	1867.69	-1.06491	-10.8735
1203.35	283.331	1736.72	1515.55	1224.96	1223.88	1223.88	1223.88	1516.63	-1.1809	-11.0043
1203.55	283.131	1760.77	1346.19	1224.04	1223.63	1223.63	1223.63	1346.61	-2.20699	-20.708
1203.75	282.931	1689.15	1271.01	1223.57	1223.42	1223.42	1223.42	1271.17	-2.27413	-20.8994
1203.95	282.731	1518.37	1240.37	1223.34	1223.28	1223.28	1223.28	1240.42	-1.59501	-13.8975
1204.15	282.531	1319.16	1228.91	1223.26	1223.24	1223.24	1223.24	1228.93	-0.555535	-4.51175
1204.35	282.331	1014.99	1224.82	1223.09	1223.08	1223.08	1223.08	1224.83	1.47277	10.4919
1204.55	282.131	1399.88	1223.51	1223.02	1223.02	1223.02	1223.02	1223.51	-1.05402	-8.81819
1204.75	281.931	1043.23	1223.05	1222.92	1222.92	1222.92	1222.92	1223.05	1.24492	8.99116
1204.95	281.731	1357.93	1222.88	1222.85	1222.85	1222.85	1222.85	1222.88	-0.819502	-6.75265
1205.15	281.531	1109.67	1222.82	1222.81	1222.81	1222.81	1222.81	1222.82	0.759538	5.65758
1205.35	281.331	1451.21	1222.68	1222.68	1222.68	1222.68	1222.68	1222.68	-1.34141	-11.4264
1205.55	281.131	1256.02	1222.64	1222.64	1222.64	1222.64	1222.64	1222.64	-0.210609	-1.66902
1205.75	280.931	1149.48	1149.48	1149.48	1149.48	1149.48	1149.48	1149.48	0	0
1205.95	280.731	1091.99	1091.99	1091.99	1091.99	1091.99	1091.99	1091.99	0	0
1206.15	280.531	1361.09	1361.09	1361.09	1361.09	1361.09	1361.09	1361.09	0	0
1206.35	280.331	1041.29	1041.29	1041.29	1041.29	1041.29	1041.29	1041.29	0	0
1206.55	280.131	969.344	969.344	969.344	969.344	969.344	969.344	969.344	0	0
1206.75	279.931	975.808	975.808	975.808	975.808	975.808	975.808	975.808	0	0
1206.95	279.731	1069.69	1069.69	1069.69	1069.69	1069.69	1069.69	1069.69	0	0
1207.15	279.531	1120.06	1120.06	1120.06	1120.06	1120.06	1120.06	1120.06	0	0
1207.35	279.331	1049.12	1049.12	1049.12	1049.12	1049.12	1049.12	1049.12	0	0
1207.55	279.131	1079.3	1079.3	1079.3	1079.3	1079.3	1079.3	1079.3	0	0
1207.75	278.931	854.964	854.964	854.964	854.964	854.964	854.964	854.964	0	0
1207.95	278.731	1135.09	1135.09	1135.09	1135.09	1135.09	1135.09	1135.09	0	0
1208.15	278.531	1205.06	1205.06	1205.06	1205.06	1205.06	1205.06	1205.06	0	0
1208.35	278.331	959.692	959.692	959.692	959.692	959.692	959.692	959.692	0	0