File: XPS/250418_191x195-2.3.csv
C1s Scan
	Characteristic Energy eV	1486.68	Acquisition Time s	0.05
KE_C1s Scan	BE_C1s Scan	CPS_C1s Scan	C-C/C-H_1_C1s Scan	C-O_2_C1s Scan	C=O_3_C1s Scan	O-C=O_4_C1s Scan	Background_C1s Scan	Envelope_C1s Scan	Normalised_Residual_C1s Scan	Residual_C1s Scan
1189.41	297.27	1851.23	1851.23	1851.23	1851.23	1851.23	1851.23	1851.23	0	0
1189.61	297.07	1731.31	1731.31	1731.31	1731.31	1731.31	1731.31	1731.31	0	0
1189.81	296.87	1782.22	1782.22	1782.22	1782.22	1782.22	1782.22	1782.22	0	0
1190.01	296.67	1816.23	1816.23	1816.23	1816.23	1816.23	1816.23	1816.23	0	0
1190.21	296.47	1743.99	1743.99	1743.99	1743.99	1743.99	1743.99	1743.99	0	0
1190.41	296.27	1599.62	1599.62	1599.62	1599.62	1599.62	1599.62	1599.62	0	0
1190.61	296.07	1665.06	1665.06	1665.06	1665.06	1665.06	1665.06	1665.06	0	0
1190.81	295.87	1429.36	1429.36	1429.36	1429.36	1429.36	1429.36	1429.36	0	0
1191.01	295.67	2040.92	2040.92	2040.92	2040.92	2040.92	2040.92	2040.92	0	0
1191.21	295.47	1500.28	1500.28	1500.28	1500.28	1500.28	1500.28	1500.28	0	0
1191.41	295.27	1466.22	1466.22	1466.22	1466.22	1466.22	1466.22	1466.22	0	0
1191.61	295.07	1643.06	1643.06	1643.06	1643.06	1643.06	1643.06	1643.06	0	0
1191.81	294.87	1627.74	1627.74	1627.74	1627.74	1627.74	1627.74	1627.74	0	0
1192.01	294.67	1889.95	1889.95	1889.95	1889.95	1889.95	1889.95	1889.95	0	0
1192.21	294.47	1509.58	1509.58	1509.58	1509.58	1509.58	1509.58	1509.58	0	0
1192.41	294.27	1410.06	1410.06	1410.06	1410.06	1410.06	1410.06	1410.06	0	0
1192.61	294.07	1435.52	1435.52	1435.52	1435.52	1435.52	1435.52	1435.52	0	0
1192.81	293.87	1802.74	1802.74	1802.74	1802.74	1802.74	1802.74	1802.74	0	0
1193.01	293.67	1698.86	1698.86	1698.86	1698.86	1698.86	1698.86	1698.86	0	0
1193.21	293.47	1304.91	1304.91	1304.91	1304.91	1304.91	1304.91	1304.91	0	0
1193.41	293.27	1518.41	1518.41	1518.41	1518.41	1518.41	1518.41	1518.41	0	0
1193.61	293.07	1580.93	1580.93	1580.93	1580.93	1580.93	1580.93	1580.93	0	0
1193.81	292.87	1403.43	1403.43	1403.43	1403.43	1403.43	1403.43	1403.43	0	0
1194.01	292.67	1616.02	1616.02	1616.02	1616.02	1616.03	1616.02	1616.03	0	0
1194.21	292.47	1227.67	1266.01	1266.01	1266.01	1266.04	1266.01	1266.04	0.244873	1.91852
1194.41	292.27	1222.78	1266.06	1266.06	1266.06	1266.14	1266.06	1266.14	0.277249	2.16785
1194.61	292.07	1340.96	1266.1	1266.1	1266.1	1266.32	1266.1	1266.32	-0.455802	-3.73224
1194.81	291.87	1301.92	1266.18	1266.18	1266.18	1266.75	1266.18	1266.75	-0.217976	-1.75868
1195.01	291.67	1258.56	1266.19	1266.19	1266.19	1267.6	1266.19	1267.6	0.0570196	0.45232
1195.21	291.47	1394.26	1266.22	1266.22	1266.23	1269.56	1266.22	1269.57	-0.746732	-6.2348
1195.41	291.27	1144.12	1266.27	1266.27	1266.28	1273.76	1266.27	1273.77	0.857052	6.48229
1195.61	291.07	1429.88	1266.32	1266.32	1266.33	1282.26	1266.32	1282.27	-0.872836	-7.38018
1195.81	290.87	1358.79	1266.39	1266.39	1266.43	1298.68	1266.39	1298.72	-0.364425	-3.00379
1196.01	290.67	1301.22	1266.47	1266.47	1266.57	1328.44	1266.47	1328.54	0.169367	1.36612
1196.21	290.47	1332.43	1266.52	1266.52	1266.77	1379.13	1266.52	1379.39	0.287641	2.34778
1196.41	290.27	1391.45	1266.59	1266.6	1267.19	1460.13	1266.59	1460.72	0.415247	3.46359
1196.61	290.07	1606.31	1266.79	1266.8	1268.1	1580.59	1266.79	1581.91	-0.136116	-1.21986
1196.81	289.87	1684.28	1266.96	1266.99	1269.74	1745.71	1266.96	1748.52	0.350015	3.21203
1197.01	289.67	1810.4	1267.25	1267.36	1272.83	1950.27	1267.25	1955.95	0.764917	7.27758
1197.21	289.47	2042.72	1267.59	1267.89	1278.18	2173.7	1267.59	2184.6	0.701924	7.09381
1197.41	289.27	2644.56	1268.13	1268.94	1287.19	2378.96	1268.13	2398.82	-1.06853	-12.2871
1197.61	289.07	2536.18	1268.82	1270.85	1301.23	2519.87	1268.82	2554.32	0.0805489	0.907057
1197.81	288.87	3035.54	1269.52	1274.42	1321.56	2557.71	1269.52	2614.64	-1.70822	-21.0449
1198.01	288.67	2287.4	1270.15	1281.33	1348.61	2482.04	1270.15	2571.69	1.32915	14.2145
1198.21	288.47	2116.98	1270.67	1294.9	1381.2	2314.9	1270.67	2449.67	1.61684	16.6345
1198.41	288.27	2046.26	1271.21	1321.01	1415.85	2099.27	1271.2	2293.74	1.22335	12.3742
1198.61	288.07	2170.6	1271.64	1368.71	1446.36	1879.63	1271.61	2151.5	-0.0916605	-0.954899
1198.81	287.87	2074.9	1272.15	1451.78	1465.72	1688.15	1272.03	2061.73	-0.0646559	-0.658555
1199.01	287.67	2067.74	1272.93	1587.3	1468.67	1539.44	1272.43	2051.04	-0.0821104	-0.834893
1199.21	287.47	2439.46	1274.62	1793.45	1454.59	1434.15	1272.88	2138.17	-1.36403	-15.0645
1199.41	287.27	2385.58	1279.03	2083.27	1427.55	1365.3	1273.34	2335.13	-0.23095	-2.52232
1199.61	287.07	2561.38	1291.21	2454.97	1394.56	1323.6	1274	2642.33	0.357638	4.0473
1199.81	286.87	3353.02	1322.9	2879.93	1362.2	1300.2	1274.82	3040.75	-1.20588	-15.6137
1200.01	286.67	3595.66	1400.11	3295.54	1335.02	1288.26	1275.92	3491.16	-0.389679	-5.22495
1200.21	286.47	3504.14	1573.51	3615.12	1314.52	1282.71	1277.02	3954.79	1.7023	22.5327
1200.41	286.27	4433.7	1932.32	3757.19	1300.82	1280.9	1278.41	4435.99	0.00770073	0.114657
1200.61	286.07	5078.88	2608.43	3681.33	1292.63	1281.02	1279.98	5023.46	-0.173888	-2.77102
1200.81	285.87	6520.24	3757.73	3409.81	1289.13	1282.78	1282.37	5892.34	-1.73879	-31.3952
1201.01	285.67	7779.34	5490.78	3016.47	1288.69	1285.41	1285.26	7225.57	-1.40393	-27.6887
1201.21	285.47	9111.3	7747.51	2590.98	1290.43	1288.83	1288.78	9051.42	-0.140284	-2.99422
1201.41	285.27	11612.4	10161.6	2204.63	1294.3	1293.57	1293.55	11073.5	-1.11825	-26.9454
1201.61	285.07	13021.4	12056.8	1895.24	1299.32	1299	1298.99	12653.4	-0.72113	-18.4004
1201.81	284.87	12261.1	12726.8	1671.19	1304.51	1304.38	1304.38	13093.7	1.68144	41.6323
1202.01	284.67	11382.1	11889.6	1522.88	1309.79	1309.74	1309.74	12102.8	1.51052	36.0348
1202.21	284.47	10018.3	9898.25	1431.36	1314.24	1314.22	1314.22	10015.4	-0.00636352	-0.142423
1202.41	284.27	7562.54	7478.93	1378.63	1317.67	1317.66	1317.66	7539.9	-0.0582102	-1.13193
1202.61	284.07	5507.7	5278.83	1350.05	1319.98	1319.98	1319.98	5308.91	-0.598958	-9.93954
1202.81	283.87	4173.74	3624.24	1335.58	1321.51	1321.51	1321.51	3638.31	-1.8532	-26.7714
1203.01	283.67	2776.94	2545.32	1328.63	1322.36	1322.36	1322.36	2551.59	-0.956228	-11.2676
1203.21	283.47	2220.1	1919.23	1325.57	1322.92	1322.92	1322.92	1921.88	-1.41525	-14.9109
1203.41	283.27	1900.08	1591.24	1324.42	1323.35	1323.35	1323.35	1592.31	-1.5788	-15.3886
1203.61	283.07	1446.29	1434.55	1323.85	1323.45	1323.45	1323.45	1434.96	-0.0666082	-0.566421
1203.81	282.87	1283.37	1366.06	1323.63	1323.48	1323.48	1323.48	1366.21	0.51709	4.14215
1204.01	282.67	1313.85	1338.6	1323.57	1323.52	1323.52	1323.52	1338.65	0.153001	1.24009
1204.21	282.47	1593.83	1328.55	1323.62	1323.61	1323.61	1323.61	1328.56	-1.48574	-13.2632
1204.41	282.27	1410.94	1325.16	1323.67	1323.67	1323.67	1323.67	1325.17	-0.510632	-4.28892
1204.61	282.07	1381.19	1324.14	1323.72	1323.72	1323.72	1323.72	1324.14	-0.343243	-2.85242
1204.81	281.87	1453.41	1323.89	1323.78	1323.78	1323.78	1323.78	1323.89	-0.759659	-6.47586
1205.01	281.67	1265.92	1323.84	1323.82	1323.82	1323.82	1323.82	1323.84	0.363994	2.8959
1205.21	281.47	1320.79	1323.85	1323.84	1323.84	1323.84	1323.84	1323.85	0.0188214	0.152952
1205.41	281.27	1147.17	1147.17	1147.17	1147.17	1147.17	1147.17	1147.17	0	0
1205.61	281.07	1060.43	1060.43	1060.43	1060.43	1060.43	1060.43	1060.43	0	0
1205.81	280.87	1303.24	1303.24	1303.24	1303.24	1303.24	1303.24	1303.24	0	0
1206.01	280.67	988.746	988.746	988.746	988.746	988.746	988.746	988.746	0	0
1206.21	280.47	1463.04	1463.04	1463.04	1463.04	1463.04	1463.04	1463.04	0	0
1206.41	280.27	1176.76	1176.76	1176.76	1176.76	1176.76	1176.76	1176.76	0	0
1206.61	280.07	1110.37	1110.37	1110.37	1110.37	1110.37	1110.37	1110.37	0	0
1206.81	279.87	1138.72	1138.72	1138.72	1138.72	1138.72	1138.72	1138.72	0	0
1207.01	279.67	1218.3	1218.3	1218.3	1218.3	1218.3	1218.3	1218.3	0	0
1207.21	279.47	1342.31	1342.31	1342.31	1342.31	1342.31	1342.31	1342.31	0	0
1207.41	279.27	942.316	942.316	942.316	942.316	942.316	942.316	942.316	0	0
1207.61	279.07	1417.46	1417.46	1417.46	1417.46	1417.46	1417.46	1417.46	0	0
1207.81	278.87	950.22	950.22	950.22	950.22	950.22	950.22	950.22	0	0
1208.01	278.67	1303.66	1303.66	1303.66	1303.66	1303.66	1303.66	1303.66	0	0
1208.21	278.47	1053.12	1053.12	1053.12	1053.12	1053.12	1053.12	1053.12	0	0
1208.41	278.27	999.796	999.796	999.796	999.796	999.796	999.796	999.796	0	0