File: XPS/250418_C-1.1.csv
C1s Scan
	Characteristic Energy eV	1486.68	Acquisition Time s	0.05
KE_C1s Scan	BE_C1s Scan	CPS_C1s Scan	C-C/C-H_1_C1s Scan	C-O_2_C1s Scan	C=O_3_C1s Scan	O-C=O_4_C1s Scan	Background_C1s Scan	Envelope_C1s Scan	Normalised_Residual_C1s Scan	Residual_C1s Scan
1188.91	297.767	3151.66	3151.66	3151.66	3151.66	3151.66	3151.66	3151.66	0	0
1189.11	297.567	3068.16	3068.16	3068.16	3068.16	3068.16	3068.16	3068.16	0	0
1189.31	297.367	2907.6	2907.6	2907.6	2907.6	2907.6	2907.6	2907.6	0	0
1189.51	297.167	2796.82	2796.82	2796.82	2796.82	2796.82	2796.82	2796.82	0	0
1189.71	296.967	3020.42	3020.42	3020.42	3020.42	3020.42	3020.42	3020.42	0	0
1189.91	296.767	2739.04	2739.04	2739.04	2739.04	2739.04	2739.04	2739.04	0	0
1190.11	296.567	2279.4	2279.4	2279.4	2279.4	2279.4	2279.4	2279.4	0	0
1190.31	296.367	3192.32	3192.32	3192.32	3192.32	3192.32	3192.32	3192.32	0	0
1190.51	296.167	3055.84	3055.84	3055.84	3055.84	3055.84	3055.84	3055.84	0	0
1190.71	295.967	2464.94	2464.94	2464.94	2464.94	2464.94	2464.94	2464.94	0	0
1190.91	295.767	2427.14	2427.14	2427.14	2427.14	2427.14	2427.14	2427.14	0	0
1191.11	295.567	2465.96	2465.96	2465.96	2465.96	2465.96	2465.96	2465.96	0	0
1191.31	295.367	2057.32	2057.32	2057.32	2057.32	2057.32	2057.32	2057.32	0	0
1191.51	295.167	1957.78	1957.78	1957.78	1957.78	1957.78	1957.78	1957.78	0	0
1191.71	294.967	1693.91	1693.91	1693.91	1693.91	1693.91	1693.91	1693.91	0	0
1191.91	294.767	1954.19	1954.19	1954.19	1954.19	1954.19	1954.19	1954.19	0	0
1192.11	294.567	1653.63	1653.63	1653.63	1653.63	1653.63	1653.63	1653.63	0	0
1192.31	294.367	1910.69	1910.69	1910.69	1910.69	1910.69	1910.69	1910.69	0	0
1192.51	294.167	1410.5	1410.5	1410.5	1410.5	1410.5	1410.5	1410.5	0	0
1192.71	293.967	1349.71	1349.71	1349.71	1349.71	1349.71	1349.71	1349.71	0	0
1192.91	293.767	1378.89	1378.89	1378.89	1378.89	1378.89	1378.89	1378.89	0	0
1193.11	293.567	1373	1373	1373	1373	1373	1373	1373	0	0
1193.31	293.367	1341.87	1341.87	1341.87	1341.87	1341.87	1341.87	1341.87	0	0
1193.51	293.167	1051.83	1051.83	1051.83	1051.83	1051.83	1051.83	1051.83	0	0
1193.71	292.967	918.76	918.76	918.76	918.76	918.76	918.76	918.76	0	0
1193.91	292.767	947.838	947.838	947.838	947.838	947.838	947.838	947.838	0	0
1194.11	292.567	762.802	762.802	762.802	762.802	762.803	762.802	762.803	0	0
1194.31	292.367	783.728	783.728	783.728	783.728	783.733	783.728	783.733	0	0
1194.51	292.167	646.414	646.414	646.414	646.414	646.431	646.414	646.431	0	0
1194.71	291.967	771.414	771.414	771.414	771.414	771.473	771.414	771.473	0	0
1194.91	291.767	755.062	755.062	755.062	755.062	755.251	755.062	755.251	0	0
1195.11	291.567	666.408	666.408	666.408	666.408	666.976	666.408	666.976	0	0
1195.31	291.367	597.174	597.174	597.174	597.175	598.776	597.174	598.777	0	0
1195.51	291.167	625.452	625.452	625.452	625.457	629.65	625.452	629.655	0	0
1195.71	290.967	534.772	606.776	606.776	606.794	617.116	606.776	617.134	0.796393	4.1181
1195.91	290.767	854.454	606.809	606.809	606.871	630.489	606.809	630.551	-1.71278	-11.1952
1196.11	290.567	518.792	606.819	606.819	607.022	657.663	606.819	657.865	1.36531	6.95367
1196.31	290.367	461.974	606.841	606.841	607.463	708.267	606.841	708.89	2.56877	12.3458
1196.51	290.167	741.15	606.862	606.863	608.639	795.577	606.862	797.354	0.461635	2.8102
1196.71	289.967	941.6	606.936	606.939	611.702	931.58	606.936	936.348	-0.0382686	-0.26258
1196.91	289.767	1078.82	607.01	607.019	618.904	1122.27	607.01	1134.17	0.376777	2.76722
1197.11	289.567	1560.02	607.192	607.227	635.039	1354.31	607.192	1382.19	-1.00674	-8.89132
1197.31	289.367	1742.58	607.453	607.583	668.133	1588.76	607.453	1649.57	-0.498189	-4.65024
1197.51	289.167	1857.46	607.728	608.17	731.422	1764.71	607.728	1888.85	0.162883	1.56972
1197.71	288.967	1902.4	608.032	609.43	842.167	1822.41	608.032	2057.95	0.797427	7.77727
1197.91	288.767	2212.94	608.386	612.533	1020.27	1742.17	608.386	2158.2	-0.260213	-2.73715
1198.11	288.567	2348.12	608.771	620.231	1276.57	1552.09	608.771	2231.34	-0.538875	-5.83893
1198.31	288.367	2482.66	609.218	638.899	1602.04	1314.75	609.218	2337.25	-0.652564	-7.27054
1198.51	288.167	2574.14	609.623	681.311	1949.75	1088.46	609.623	2500.28	-0.325523	-3.69303
1198.71	287.967	2536.04	610.077	772.114	2236.6	907.425	610.074	2695.99	0.710237	7.99773
1198.91	287.767	2495.16	610.499	951.897	2373.05	780.991	610.477	2885	1.74513	19.4922
1199.11	287.567	3006.66	611.092	1281.99	2307.2	701.453	610.942	3068.9	0.253818	3.11207
1199.31	287.367	3739.52	612.514	1836.54	2066.4	656.413	611.604	3337.06	-1.47163	-20.123
1199.51	287.167	4150.8	617.318	2682.66	1730.5	633.043	612.411	3826.29	-1.12629	-16.2256
1199.71	286.967	5355.16	636.538	3830.98	1391.08	622.344	613.444	4640.61	-2.1834	-35.7277
1199.91	286.767	6054.24	711.317	5177.3	1109.03	618.223	614.649	5771.92	-0.811335	-14.1161
1200.11	286.567	7358.46	970.252	6463.43	905.096	617.435	616.087	7107.95	-0.652995	-12.5253
1200.31	286.367	7849.92	1768.75	7327.84	774.386	618.082	617.61	8636.24	1.98449	39.3158
1200.51	286.167	10842.8	3898.46	7473.52	698.649	619.933	619.778	10831.2	-0.0247998	-0.577437
1200.71	285.967	15462.6	8845.4	6846.35	660.079	623.018	622.971	15105.9	-0.641361	-17.8332
1200.91	285.767	24407.4	18550.5	5674.8	644.094	627.872	627.859	23613.7	-1.13605	-39.6866
1201.11	285.567	37184	34290.7	4321.88	642.308	635.645	635.641	37983.6	0.927261	39.982
1201.31	285.367	57011.2	53945.5	3095.94	650.217	647.672	647.671	56396.3	-0.575815	-30.7431
1201.51	285.167	70228.6	70200.5	2154.75	664.095	663.182	663.182	71693	1.23565	73.2212
1201.71	284.967	75186.8	74020.7	1519.88	680.748	680.443	680.443	74860.4	-0.266159	-16.3191
1201.91	284.767	64988.6	62864.8	1134.54	696.26	696.165	696.165	63303.2	-1.4783	-84.2685
1202.11	284.567	43397.6	43682.4	920.755	707.525	707.497	707.497	43895.7	0.534599	24.9027
1202.31	284.367	23892.8	25503	810.697	713.978	713.971	713.971	25599.8	2.46934	85.3492
1202.51	284.167	12845	12905.7	758.26	717.247	717.245	717.245	12946.7	0.200568	5.08294
1202.71	283.967	7013.56	5919.53	735.182	718.951	718.95	718.95	5935.76	-2.87776	-53.8901
1202.91	283.767	3667.76	2657.69	725.854	719.84	719.84	719.84	2663.71	-3.70716	-50.2027
1203.11	283.567	2651.56	1356.88	722.455	720.377	720.377	720.377	1358.96	-5.61305	-64.6301
1203.31	283.367	1961.48	904.362	721.332	720.659	720.659	720.659	905.035	-5.33383	-52.8222
1203.51	283.167	1760.09	767.806	721.091	720.888	720.888	720.888	768.009	-5.28767	-49.604
1203.71	282.967	1314.12	731.552	721.085	721.028	721.028	721.028	731.61	-3.59313	-29.1257
1203.91	282.767	1272.63	723.228	721.154	721.139	721.139	721.139	723.243	-3.4436	-27.4694
1204.11	282.567	1072.45	721.58	721.22	721.216	721.216	721.216	721.584	-2.39573	-17.5433
1204.31	282.367	937.87	721.332	721.277	721.276	721.276	721.276	721.333	-1.58105	-10.8268
1204.51	282.167	663.002	721.291	721.284	721.284	721.284	721.284	721.291	0.506194	2.91447
1204.71	281.967	693.964	721.289	721.288	721.288	721.288	721.288	721.289	0.23194	1.36625
1204.91	281.767	742.894	742.894	742.894	742.894	742.894	742.894	742.894	0	0
1205.11	281.567	506.468	506.468	506.468	506.468	506.468	506.468	506.468	0	0
1205.31	281.367	544.794	544.794	544.794	544.794	544.794	544.794	544.794	0	0
1205.51	281.167	619.236	619.236	619.236	619.236	619.236	619.236	619.236	0	0
1205.71	280.967	553.432	553.432	553.432	553.432	553.432	553.432	553.432	0	0
1205.91	280.767	465.376	465.376	465.376	465.376	465.376	465.376	465.376	0	0
1206.11	280.567	270.748	270.748	270.748	270.748	270.748	270.748	270.748	0	0
1206.31	280.367	507.532	507.532	507.532	507.532	507.532	507.532	507.532	0	0
1206.51	280.167	421.29	421.29	421.29	421.29	421.29	421.29	421.29	0	0
1206.71	279.967	368.178	368.178	368.178	368.178	368.178	368.178	368.178	0	0
1206.91	279.767	325.8	325.8	325.8	325.8	325.8	325.8	325.8	0	0
1207.11	279.567	353.97	353.97	353.97	353.97	353.97	353.97	353.97	0	0
1207.31	279.367	342.29	342.29	342.29	342.29	342.29	342.29	342.29	0	0
1207.51	279.167	290.578	290.578	290.578	290.578	290.578	290.578	290.578	0	0
1207.71	278.967	385.548	385.548	385.548	385.548	385.548	385.548	385.548	0	0
1207.91	278.767	308.844	308.844	308.844	308.844	308.844	308.844	308.844	0	0