File: XPS/250418_195-1.2.csv
C1s Scan
	Characteristic Energy eV	1486.68	Acquisition Time s	0.05
KE_C1s Scan	BE_C1s Scan	CPS_C1s Scan	C-C/C-H_1_C1s Scan	C-O_2_C1s Scan	C=O_3_C1s Scan	O-C=O_4_C1s Scan	Background_C1s Scan	Envelope_C1s Scan	Normalised_Residual_C1s Scan	Residual_C1s Scan
1189.38	297.3	1655.14	1655.14	1655.14	1655.14	1655.14	1655.14	1655.14	0	0
1189.58	297.1	1491.61	1491.61	1491.61	1491.61	1491.61	1491.61	1491.61	0	0
1189.78	296.9	1485.1	1485.1	1485.1	1485.1	1485.1	1485.1	1485.1	0	0
1189.98	296.7	1529.36	1529.36	1529.36	1529.36	1529.36	1529.36	1529.36	0	0
1190.18	296.5	1409.47	1409.47	1409.47	1409.47	1409.47	1409.47	1409.47	0	0
1190.38	296.3	1453.85	1453.85	1453.85	1453.85	1453.85	1453.85	1453.85	0	0
1190.58	296.1	1203.97	1203.97	1203.97	1203.97	1203.97	1203.97	1203.97	0	0
1190.78	295.9	1390.23	1390.23	1390.23	1390.23	1390.23	1390.23	1390.23	0	0
1190.98	295.7	1507.68	1507.68	1507.68	1507.68	1507.68	1507.68	1507.68	0	0
1191.18	295.5	1263.24	1263.24	1263.24	1263.24	1263.24	1263.24	1263.24	0	0
1191.38	295.3	1283.89	1283.89	1283.89	1283.89	1283.89	1283.89	1283.89	0	0
1191.58	295.1	1530.07	1530.07	1530.07	1530.07	1530.07	1530.07	1530.07	0	0
1191.78	294.9	1535.19	1535.19	1535.19	1535.19	1535.19	1535.19	1535.19	0	0
1191.98	294.7	1218.76	1218.76	1218.76	1218.76	1218.76	1218.76	1218.76	0	0
1192.18	294.5	1230.32	1230.32	1230.32	1230.32	1230.32	1230.32	1230.32	0	0
1192.38	294.3	1525.49	1525.49	1525.49	1525.49	1525.49	1525.49	1525.49	0	0
1192.58	294.1	1124.7	1124.7	1124.7	1124.7	1124.7	1124.7	1124.7	0	0
1192.78	293.9	1302.61	1302.61	1302.61	1302.61	1302.61	1302.61	1302.61	0	0
1192.98	293.7	1029.16	1029.16	1029.16	1029.16	1029.16	1029.16	1029.16	0	0
1193.18	293.5	1401.85	1401.85	1401.85	1401.85	1401.85	1401.85	1401.85	0	0
1193.38	293.3	1256.14	1256.14	1256.14	1256.14	1256.14	1256.14	1256.14	0	0
1193.58	293.1	1364.59	1364.59	1364.59	1364.59	1364.59	1364.59	1364.59	0	0
1193.78	292.9	1100.52	1100.52	1100.52	1100.52	1100.52	1100.52	1100.52	0	0
1193.98	292.7	1131.13	1131.13	1131.13	1131.13	1131.13	1131.13	1131.13	0	0
1194.18	292.5	1186.5	1186.5	1186.5	1186.5	1186.51	1186.5	1186.51	0	0
1194.38	292.3	1191.4	1191.4	1191.4	1191.4	1191.43	1191.4	1191.43	0	0
1194.58	292.1	1550.25	1550.25	1550.25	1550.25	1550.34	1550.25	1550.34	0	0
1194.78	291.9	1083.99	1083.99	1083.99	1083.99	1084.21	1083.99	1084.21	0	0
1194.98	291.7	1618.25	1618.25	1618.25	1618.25	1618.81	1618.25	1618.81	0	0
1195.18	291.5	1191.46	1191.46	1191.46	1191.46	1192.81	1191.46	1192.81	0	0
1195.38	291.3	1143.73	1143.73	1143.73	1143.74	1146.81	1143.73	1146.81	0	0
1195.58	291.1	1129.92	1235.58	1235.58	1235.59	1242.24	1235.58	1242.24	0.747215	5.61635
1195.78	290.9	1088.45	1235.04	1235.04	1235.06	1248.71	1235.04	1248.73	1.08629	8.01377
1195.98	290.7	1113.1	1234.57	1234.57	1234.61	1261.18	1234.57	1261.23	0.99277	7.40629
1196.18	290.5	1388.97	1234.02	1234.02	1234.13	1283.15	1234.02	1283.26	-0.634262	-5.28568
1196.38	290.3	1154.41	1233.61	1233.62	1233.88	1319.58	1233.61	1319.85	1.08882	8.27221
1196.58	290.1	1317.66	1233.24	1233.25	1233.87	1375.19	1233.24	1375.82	0.358258	2.90792
1196.78	289.9	1409.11	1232.89	1232.92	1234.27	1453.41	1232.89	1454.81	0.272229	2.28503
1196.98	289.7	1460.74	1232.39	1232.49	1235.27	1553.36	1232.39	1556.33	0.55922	4.77919
1197.18	289.5	1947.53	1230.47	1230.74	1236.18	1665.84	1230.47	1671.82	-1.39701	-13.7857
1197.38	289.3	1690.31	1229.09	1229.83	1239.82	1775.78	1229.09	1787.26	0.527253	4.84716
1197.58	289.1	2082.72	1226.09	1228.04	1245.21	1857.56	1226.09	1878.62	-1.00001	-10.2048
1197.78	288.9	1832.31	1223.62	1228.47	1255.8	1891.47	1223.62	1928.5	0.502441	4.80917
1197.98	288.7	1588.02	1221.5	1232.95	1272.57	1866.91	1221.5	1929.45	1.91582	17.0713
1198.18	288.5	1898.5	1219.08	1244.75	1295.14	1789.71	1219.08	1891.44	-0.036248	-0.353162
1198.38	288.3	2106.38	1216.8	1271.34	1322.53	1680.15	1216.8	1840.43	-1.29574	-13.2976
1198.58	288.1	1748.99	1215	1325.24	1351.34	1562.8	1214.97	1809.47	0.323391	3.02418
1198.78	287.9	1777.97	1213.87	1425.24	1375.94	1456.69	1213.75	1830.49	0.278482	2.62569
1198.98	287.7	1835.01	1211.42	1595	1387.72	1369.72	1210.96	1930.97	0.500889	4.79784
1199.18	287.5	2287.04	1208.85	1866.52	1383.28	1304.71	1207.21	2141.73	-0.679409	-7.2653
1199.38	287.3	2731.78	1208.32	2270.59	1363.21	1259.41	1202.86	2492.93	-1.02183	-11.9423
1199.58	287.1	2732.94	1214.82	2824.33	1332.05	1229.15	1198.11	3006.01	1.168	13.6534
1199.78	286.9	4163.56	1235.56	3505.27	1291.42	1204.39	1188.25	3671.89	-1.70384	-24.5836
1199.98	286.7	4572.02	1301.91	4247.1	1251.81	1185.98	1178.03	4452.71	-0.394539	-5.96526
1200.18	286.5	4738.36	1464	4920.03	1213.45	1167.87	1164.15	5272.89	1.73637	26.7264
1200.38	286.3	5750.84	1820.1	5371.13	1180.04	1150.77	1149.12	6074.67	0.954855	16.1915
1200.58	286.1	6602.18	2514.66	5472.17	1149.91	1132.33	1131.63	6874.17	0.748493	13.5993
1200.78	285.9	8206.2	3726.26	5185.03	1119.65	1109.73	1109.45	7812.32	-0.972251	-19.694
1200.98	285.7	9988.28	5601.83	4587.12	1087.22	1081.92	1081.82	9112.64	-1.95914	-43.782
1201.18	285.5	11352.2	8118.52	3823.95	1051.55	1048.87	1048.83	10896.4	-0.956682	-22.7926
1201.38	285.3	13013.4	10915.7	3044.09	1010.66	1009.38	1009.36	12951.7	-0.120863	-3.083
1201.58	285.1	14691.8	13251.5	2353.02	963.358	962.777	962.773	14642.4	-0.0911734	-2.4711
1201.78	284.9	14108.8	14275.8	1806.75	916.054	915.804	915.803	15167	1.99205	52.9091
1201.98	284.7	13518.8	13541.3	1407.94	870.499	870.398	870.397	14078.9	1.0772	28.006
1202.18	284.5	11548	11346.3	1138.78	832.588	832.548	832.548	11652.6	0.217716	5.23152
1202.38	284.3	8951.2	8504.42	967.303	802.284	802.269	802.269	8669.47	-0.665843	-14.0863
1202.58	284.1	7366.44	5820.12	863.744	779.512	779.507	779.507	5904.37	-3.80913	-73.1037
1202.78	283.9	4537.78	3746.43	805.769	764.865	764.863	764.863	3787.34	-2.49103	-37.522
1202.98	283.7	3019.18	2364.18	774.988	756.136	756.135	756.135	2383.03	-2.5888	-31.8074
1203.18	283.5	2667.88	1544.65	757.313	749.07	749.07	749.07	1552.89	-4.82695	-55.7495
1203.38	283.3	1597.38	1108.02	748.973	745.554	745.554	745.554	1111.44	-2.71871	-24.297
1203.58	283.1	1370.43	895.513	744.447	743.103	743.103	743.103	896.857	-2.86053	-23.6789
1203.78	282.9	1063.56	800.601	741.892	741.388	741.388	741.388	801.105	-1.79953	-13.1228
1203.98	282.7	977.228	761.858	740.773	740.593	740.593	740.593	762.038	-1.53925	-10.7595
1204.18	282.5	743.042	747.359	740.36	740.3	740.3	740.3	747.419	0.0359079	0.218867
1204.38	282.3	673.014	742.198	740.052	740.033	740.033	740.033	742.218	0.596488	3.46018
1204.58	282.1	755.66	740.567	739.959	739.953	739.953	739.953	740.573	-0.122723	-0.754352
1204.78	281.9	829.142	739.773	739.614	739.613	739.613	739.613	739.775	-0.693982	-4.46835
1204.98	281.7	650.662	739.318	739.28	739.28	739.28	739.28	739.319	0.777177	4.43285
1205.18	281.5	920.08	738.897	738.889	738.889	738.889	738.889	738.897	-1.33564	-9.05913
1205.38	281.3	770.194	738.648	738.646	738.646	738.646	738.646	738.648	-0.254175	-1.57731
1205.58	281.1	853.828	738.199	738.198	738.198	738.198	738.198	738.199	-0.884846	-5.78147
1205.78	280.9	763.584	737.917	737.917	737.917	737.917	737.917	737.918	-0.207694	-1.28332
1205.98	280.7	605.694	737.688	737.688	737.688	737.688	737.688	737.688	1.19926	6.59972
1206.18	280.5	703.95	737.619	737.619	737.619	737.619	737.619	737.619	0.283756	1.68345
1206.38	280.3	809.406	809.406	809.406	809.406	809.406	809.406	809.406	0	0
1206.58	280.1	499.988	499.988	499.988	499.988	499.988	499.988	499.988	0	0
1206.78	279.9	727.932	727.932	727.932	727.932	727.932	727.932	727.932	0	0
1206.98	279.7	476.342	476.342	476.342	476.342	476.342	476.342	476.342	0	0
1207.18	279.5	435.464	435.464	435.464	435.464	435.464	435.464	435.464	0	0
1207.38	279.3	516.3	516.3	516.3	516.3	516.3	516.3	516.3	0	0
1207.58	279.1	679.296	679.296	679.296	679.296	679.296	679.296	679.296	0	0
1207.78	278.9	731.67	731.67	731.67	731.67	731.67	731.67	731.67	0	0
1207.98	278.7	448.03	448.03	448.03	448.03	448.03	448.03	448.03	0	0
1208.18	278.5	460.146	460.146	460.146	460.146	460.146	460.146	460.146	0	0
1208.38	278.3	528.578	528.578	528.578	528.578	528.578	528.578	528.578	0	0