File: XPS/250418_191x195-3.2.csv
C1s Scan
	Characteristic Energy eV	1486.68	Acquisition Time s	0.05
KE_C1s Scan	BE_C1s Scan	CPS_C1s Scan	C-C/C-H_1_C1s Scan	C-O_2_C1s Scan	C=O_3_C1s Scan	O-C=O_4_C1s Scan	Background_C1s Scan	Envelope_C1s Scan	Normalised_Residual_C1s Scan	Residual_C1s Scan
1189.24	297.436	1774.05	1774.05	1774.05	1774.05	1774.05	1774.05	1774.05	0	0
1189.44	297.236	2124.08	2124.08	2124.08	2124.08	2124.08	2124.08	2124.08	0	0
1189.64	297.036	1915.37	1915.37	1915.37	1915.37	1915.37	1915.37	1915.37	0	0
1189.84	296.836	1631.91	1631.91	1631.91	1631.91	1631.91	1631.91	1631.91	0	0
1190.04	296.636	1367.03	1367.03	1367.03	1367.03	1367.03	1367.03	1367.03	0	0
1190.24	296.436	1528.15	1528.15	1528.15	1528.15	1528.15	1528.15	1528.15	0	0
1190.44	296.236	1718.69	1718.69	1718.69	1718.69	1718.69	1718.69	1718.69	0	0
1190.64	296.036	1533.9	1533.9	1533.9	1533.9	1533.9	1533.9	1533.9	0	0
1190.84	295.836	1819.43	1819.43	1819.43	1819.43	1819.43	1819.43	1819.43	0	0
1191.04	295.636	1610.82	1610.82	1610.82	1610.82	1610.82	1610.82	1610.82	0	0
1191.24	295.436	1687.43	1687.43	1687.43	1687.43	1687.43	1687.43	1687.43	0	0
1191.44	295.236	1690.09	1690.09	1690.09	1690.09	1690.09	1690.09	1690.09	0	0
1191.64	295.036	1675.59	1675.59	1675.59	1675.59	1675.59	1675.59	1675.59	0	0
1191.84	294.836	1480.31	1480.31	1480.31	1480.31	1480.31	1480.31	1480.31	0	0
1192.04	294.636	1598.69	1598.69	1598.69	1598.69	1598.69	1598.69	1598.69	0	0
1192.24	294.436	1386.8	1386.8	1386.8	1386.8	1386.8	1386.8	1386.8	0	0
1192.44	294.236	1321.17	1321.17	1321.17	1321.17	1321.17	1321.17	1321.17	0	0
1192.64	294.036	1184.51	1184.51	1184.51	1184.51	1184.51	1184.51	1184.51	0	0
1192.84	293.836	1450.11	1450.11	1450.11	1450.11	1450.11	1450.11	1450.11	0	0
1193.04	293.636	1461.86	1461.86	1461.86	1461.86	1461.86	1461.86	1461.86	0	0
1193.24	293.436	1476.39	1476.39	1476.39	1476.39	1476.39	1476.39	1476.39	0	0
1193.44	293.236	1317.93	1317.93	1317.93	1317.93	1317.93	1317.93	1317.93	0	0
1193.64	293.036	1584.71	1584.71	1584.71	1584.71	1584.71	1584.71	1584.71	0	0
1193.84	292.836	1450.98	1450.98	1450.98	1450.98	1450.98	1450.98	1450.98	0	0
1194.04	292.636	1362.4	1362.4	1362.4	1362.4	1362.4	1362.4	1362.4	0	0
1194.24	292.436	1365.73	1365.73	1365.73	1365.73	1365.74	1365.73	1365.74	0	0
1194.44	292.236	1311.62	1256.91	1256.91	1256.91	1256.97	1256.91	1256.97	-0.337405	-2.73237
1194.64	292.036	1169.95	1256.89	1256.89	1256.89	1257.06	1256.89	1257.06	0.569448	4.35535
1194.84	291.836	1283.68	1256.85	1256.85	1256.85	1257.31	1256.85	1257.31	-0.164574	-1.31848
1195.04	291.636	988.304	1256.78	1256.78	1256.78	1257.99	1256.78	1257.99	1.91825	13.4845
1195.24	291.436	1046.65	1256.73	1256.73	1256.73	1259.75	1256.73	1259.75	1.47287	10.6549
1195.44	291.236	1095.76	1256.67	1256.67	1256.68	1263.77	1256.67	1263.77	1.13494	8.40071
1195.64	291.036	1383.17	1256.64	1256.64	1256.65	1272.43	1256.64	1272.44	-0.665791	-5.53683
1195.84	290.836	1288.9	1256.6	1256.6	1256.63	1289.81	1256.6	1289.84	0.00589119	0.047293
1196.04	290.636	1282.15	1256.56	1256.56	1256.65	1322.59	1256.56	1322.68	0.253063	2.02621
1196.24	290.436	1418.32	1256.48	1256.48	1256.7	1380.41	1256.48	1380.64	-0.223769	-1.8844
1196.44	290.236	1326.66	1256.4	1256.4	1256.96	1475.62	1256.4	1476.18	0.917924	7.47604
1196.64	290.036	1438.55	1256.34	1256.35	1257.64	1620.83	1256.34	1622.13	1.08231	9.17911
1196.84	289.836	1749.16	1256.12	1256.14	1258.97	1823.53	1256.12	1826.4	0.412956	3.86193
1197.04	289.636	2000.48	1255.85	1255.91	1261.76	2078.57	1255.85	2084.55	0.42029	4.20341
1197.24	289.436	2253.98	1255.4	1255.6	1266.99	2359.29	1255.4	2371.08	0.551538	5.85511
1197.44	289.236	2875.52	1254.72	1255.29	1276.16	2615.54	1254.72	2637.54	-0.992352	-11.899
1197.64	289.036	2841.46	1253.94	1255.44	1291.29	2785.02	1253.94	2823.87	-0.0737713	-0.879312
1197.84	288.836	2849.18	1253.11	1256.9	1314.24	2818.4	1253.11	2883.31	0.142981	1.70657
1198.04	288.636	2940.86	1252.31	1261.33	1345.85	2705.08	1252.3	2807.65	-0.549288	-6.66074
1198.24	288.436	2959.34	1251.65	1271.99	1384.76	2479.3	1251.64	2632.78	-1.34228	-16.3278
1198.44	288.236	2037.16	1251.22	1294.6	1426.19	2201.28	1251.19	2419.72	1.89529	19.1281
1198.64	288.036	2425.52	1250.79	1338.19	1461.63	1928.84	1250.66	2227.48	-0.899166	-9.9021
1198.84	287.836	2124.42	1250.8	1416.98	1482.11	1699.89	1250.29	2098.9	-0.123784	-1.27577
1199.04	287.636	1938.76	1251.79	1549.27	1481.26	1528.39	1249.95	2060.86	0.620081	6.10514
1199.24	287.436	2156.42	1255.67	1755.16	1459.18	1411.38	1249.56	2132.72	-0.114116	-1.18495
1199.44	287.236	2827.1	1267.63	2049.42	1422.05	1337.4	1248.87	2329.9	-2.09096	-24.86
1199.64	287.036	2494.66	1301.54	2430.54	1379.46	1293.9	1248.2	2660.84	0.743967	8.30892
1199.84	286.836	3335.5	1387.66	2866.07	1339.29	1269.64	1247.36	3120.58	-0.832116	-10.7461
1200.04	286.636	3284.5	1587.26	3286.09	1306.22	1256.6	1246.33	3697.18	1.61014	20.634
1200.24	286.436	4236.54	2009.68	3594.45	1281.51	1249.49	1245.01	4400.1	0.561907	8.17815
1200.44	286.236	5004.48	2823.47	3704.25	1264.29	1245.24	1243.39	5307.06	0.956419	15.1291
1200.64	286.036	6803.6	4238.76	3580.38	1252.14	1241.59	1240.87	6590.26	-0.578358	-10.6672
1200.84	285.836	8449.04	6432.01	3260.48	1243.42	1237.95	1237.68	8460.81	0.0286218	0.588282
1201.04	285.636	11426.8	9386.38	2832.17	1235.95	1233.28	1233.19	10988.2	-0.917501	-21.9308
1201.24	285.436	14586.2	12698	2390.83	1228.45	1227.23	1227.2	13862.9	-1.33916	-36.1651
1201.44	285.236	15273.8	15514.4	2005.62	1221.01	1220.48	1220.47	16300.1	1.85695	51.3166
1201.64	285.036	17468.4	16827.7	1707.29	1213.2	1212.98	1212.98	17322.2	-0.24733	-7.30951
1201.84	284.836	15993.9	16085.6	1497.38	1205.71	1205.62	1205.62	16377.5	0.678249	19.1801
1202.04	284.636	13289.1	13600.2	1361.56	1199.57	1199.54	1199.54	13762.3	0.917775	23.6575
1202.24	284.436	10274.2	10315.7	1279.36	1194.52	1194.51	1194.51	10400.6	0.278775	6.31848
1202.44	284.236	7861.6	7184.18	1233	1191.03	1191.03	1191.03	7226.15	-1.60254	-31.7724
1202.64	284.036	4570.26	4746.59	1208.76	1189.13	1189.13	1189.13	4766.21	0.648142	9.79773
1202.84	283.836	3079.52	3112.63	1196.66	1187.98	1187.98	1187.98	3121.32	0.168413	2.08979
1203.04	283.636	2607.08	2142.14	1190.84	1187.2	1187.2	1187.2	2145.77	-2.02024	-23.0656
1203.24	283.436	1918.44	1623.04	1188.27	1186.83	1186.83	1186.83	1624.48	-1.50073	-14.6982
1203.44	283.236	1867.13	1370.46	1187.13	1186.59	1186.59	1186.59	1371	-2.56741	-24.8066
1203.64	283.036	1254.37	1258.1	1186.7	1186.51	1186.51	1186.51	1258.29	0.0247482	0.195994
1203.84	282.836	1346.55	1212.18	1186.47	1186.41	1186.41	1186.41	1212.24	-0.81846	-6.71575
1204.04	282.636	1450.16	1194.91	1186.36	1186.34	1186.34	1186.34	1194.93	-1.49868	-12.7615
1204.24	282.436	1395.4	1188.92	1186.29	1186.29	1186.29	1186.29	1188.93	-1.23593	-10.3235
1204.44	282.236	1341.62	1186.99	1186.24	1186.24	1186.24	1186.24	1186.99	-0.944007	-7.7317
1204.64	282.036	1194.92	1186.41	1186.21	1186.21	1186.21	1186.21	1186.41	-0.0550791	-0.425738
1204.84	281.836	1233.34	1186.24	1186.19	1186.19	1186.19	1186.19	1186.24	-0.299866	-2.35479
1205.04	281.636	1205.88	1186.16	1186.15	1186.15	1186.15	1186.15	1186.16	-0.127014	-0.986252
1205.24	281.436	1226.03	1186.12	1186.11	1186.11	1186.11	1186.11	1186.12	-0.254914	-1.99586
1205.44	281.236	1259.6	1186.06	1186.06	1186.06	1186.06	1186.06	1186.06	-0.46328	-3.67658
1205.64	281.036	918.69	918.69	918.69	918.69	918.69	918.69	918.69	0	0
1205.84	280.836	1010.03	1010.03	1010.03	1010.03	1010.03	1010.03	1010.03	0	0
1206.04	280.636	1185.16	1185.16	1185.16	1185.16	1185.16	1185.16	1185.16	0	0
1206.24	280.436	982.6	982.6	982.6	982.6	982.6	982.6	982.6	0	0
1206.44	280.236	1002.83	1002.83	1002.83	1002.83	1002.83	1002.83	1002.83	0	0
1206.64	280.036	1091.02	1091.02	1091.02	1091.02	1091.02	1091.02	1091.02	0	0
1206.84	279.836	1018.21	1018.21	1018.21	1018.21	1018.21	1018.21	1018.21	0	0
1207.04	279.636	726.666	726.666	726.666	726.666	726.666	726.666	726.666	0	0
1207.24	279.436	924.4	924.4	924.4	924.4	924.4	924.4	924.4	0	0
1207.44	279.236	996.084	996.084	996.084	996.084	996.084	996.084	996.084	0	0
1207.64	279.036	994.374	994.374	994.374	994.374	994.374	994.374	994.374	0	0
1207.84	278.836	1040.38	1040.38	1040.38	1040.38	1040.38	1040.38	1040.38	0	0
1208.04	278.636	853.714	853.714	853.714	853.714	853.714	853.714	853.714	0	0
1208.24	278.436	964.09	964.09	964.09	964.09	964.09	964.09	964.09	0	0