File: XPS/250418_195-2.3.csv
C1s Scan
	Characteristic Energy eV	1486.68	Acquisition Time s	0.05
KE_C1s Scan	BE_C1s Scan	CPS_C1s Scan	C-C/C-H_1_C1s Scan	C-O_2_C1s Scan	C=O_3_C1s Scan	O-C=O_4_C1s Scan	Background_C1s Scan	Envelope_C1s Scan	Normalised_Residual_C1s Scan	Residual_C1s Scan
1188.86	297.816	1182.45	1182.45	1182.45	1182.45	1182.45	1182.45	1182.45	0	0
1189.06	297.616	1153.98	1153.98	1153.98	1153.98	1153.98	1153.98	1153.98	0	0
1189.26	297.416	1226.73	1226.73	1226.73	1226.73	1226.73	1226.73	1226.73	0	0
1189.46	297.216	1307.95	1307.95	1307.95	1307.95	1307.95	1307.95	1307.95	0	0
1189.66	297.016	1182.23	1182.23	1182.23	1182.23	1182.23	1182.23	1182.23	0	0
1189.86	296.816	987.51	987.51	987.51	987.51	987.51	987.51	987.51	0	0
1190.06	296.616	1211.56	1211.56	1211.56	1211.56	1211.56	1211.56	1211.56	0	0
1190.26	296.416	1293.88	1293.88	1293.88	1293.88	1293.88	1293.88	1293.88	0	0
1190.46	296.216	1088.02	1088.02	1088.02	1088.02	1088.02	1088.02	1088.02	0	0
1190.66	296.016	1090.29	1090.29	1090.29	1090.29	1090.29	1090.29	1090.29	0	0
1190.86	295.816	936.024	936.024	936.024	936.024	936.024	936.024	936.024	0	0
1191.06	295.616	1010.85	1010.85	1010.85	1010.85	1010.85	1010.85	1010.85	0	0
1191.26	295.416	817.734	817.734	817.734	817.734	817.734	817.734	817.734	0	0
1191.46	295.216	1012.83	1012.83	1012.83	1012.83	1012.83	1012.83	1012.83	0	0
1191.66	295.016	868.132	868.132	868.132	868.132	868.132	868.132	868.132	0	0
1191.86	294.816	1172.04	1172.04	1172.04	1172.04	1172.04	1172.04	1172.04	0	0
1192.06	294.616	783.182	783.182	783.182	783.182	783.182	783.182	783.182	0	0
1192.26	294.416	640.794	640.794	640.794	640.794	640.794	640.794	640.794	0	0
1192.46	294.216	683.752	683.752	683.752	683.752	683.752	683.752	683.752	0	0
1192.66	294.016	557.766	557.766	557.766	557.766	557.766	557.766	557.766	0	0
1192.86	293.816	377.352	377.352	377.352	377.352	377.352	377.352	377.352	0	0
1193.06	293.616	741.196	741.196	741.196	741.196	741.196	741.196	741.196	0	0
1193.26	293.416	489.794	489.794	489.794	489.794	489.794	489.794	489.794	0	0
1193.46	293.216	554.682	554.682	554.682	554.682	554.682	554.682	554.682	0	0
1193.66	293.016	280.384	280.384	280.384	280.384	280.384	280.384	280.384	0	0
1193.86	292.816	564.426	564.426	564.426	564.426	564.426	564.426	564.426	0	0
1194.06	292.616	645.612	645.612	645.612	645.612	645.613	645.612	645.613	0	0
1194.26	292.416	389.876	389.876	389.876	389.876	389.88	389.876	389.88	0	0
1194.46	292.216	439.142	439.142	439.142	439.142	439.156	439.142	439.156	0	0
1194.66	292.016	370.396	370.396	370.396	370.396	370.443	370.396	370.443	0	0
1194.86	291.816	484.87	484.87	484.87	484.871	485.015	484.87	485.016	0	0
1195.06	291.616	432.352	432.352	432.352	432.358	432.765	432.352	432.77	0	0
1195.26	291.416	400.776	400.776	400.776	400.797	401.883	400.776	401.904	0	0
1195.46	291.216	396.926	396.926	396.926	397	399.69	396.926	399.763	0	0
1195.66	291.016	427.558	319.153	319.153	319.393	325.625	319.153	325.866	-1.0997	-5.0846
1195.86	290.816	339.718	319.146	319.146	319.886	333.25	319.146	333.99	-0.0694927	-0.286407
1196.06	290.616	370.942	319.135	319.135	321.248	347.892	319.135	350.005	-0.243077	-1.04684
1196.26	290.416	198.998	319.118	319.118	324.792	373.555	319.118	379.23	2.85687	9.01156
1196.46	290.216	386.442	319.107	319.108	333.267	414.889	319.107	429.049	0.48465	2.13037
1196.66	290.016	345.56	319.102	319.105	352.291	474.417	319.102	507.609	1.94926	8.10244
1196.86	289.816	628.688	319.047	319.059	391.378	549.997	319.047	622.341	-0.0566056	-0.317367
1197.06	289.616	889.726	318.954	318.999	466.542	630.754	318.954	778.387	-0.834651	-5.56696
1197.26	289.416	1340.14	318.766	318.924	598.233	697.272	318.766	976.896	-2.21874	-18.1621
1197.46	289.216	1205.49	318.598	319.116	810.644	728.856	318.598	1221.42	0.102608	0.796613
1197.66	289.016	1242.61	318.422	320	1116.69	713.319	318.422	1513.16	1.71622	13.5277
1197.86	288.816	2039.34	318.096	322.608	1505.86	656.849	318.096	1849.13	-0.941836	-9.51054
1198.06	288.616	2233.38	317.732	329.737	1922.37	578.131	317.732	2194.77	-0.182674	-1.93038
1198.26	288.416	2249.9	317.302	347.267	2266.62	498.442	317.302	2477.73	1.07402	11.3914
1198.46	288.216	2545.24	316.866	386.54	2431.23	432.04	316.865	2616.09	0.314001	3.54226
1198.66	288.016	2812.74	316.38	468.03	2353.22	383.713	316.37	2572.23	-1.01403	-12.0255
1198.86	287.816	2347.06	315.983	623.238	2064.4	352.46	315.926	2408.31	0.282683	3.06229
1199.06	287.616	1685.39	315.856	895.906	1660.58	333.948	315.564	2259.6	3.12759	28.7107
1199.26	287.416	2369.88	316.502	1330.56	1251.42	323.825	315.176	2276.79	-0.427595	-4.65459
1199.46	287.216	2916.5	320.148	1954.69	910.319	318.502	314.716	2559.51	-1.47812	-17.8495
1199.66	287.016	3540.56	334.227	2739.28	662.593	315.668	314.114	3109.43	-1.62016	-21.5565
1199.86	286.816	4020.36	380.982	3568.6	502.483	313.963	313.369	3825.92	-0.685715	-9.72212
1200.06	286.616	4609.1	517.53	4241.06	407.797	312.782	312.569	4541.46	-0.222785	-3.38204
1200.26	286.416	4857.56	872.293	4539.48	356.468	311.726	311.655	5145	0.922204	14.3721
1200.46	286.216	5772.54	1698.92	4355.65	330.189	310.583	310.561	5763.66	-0.0261417	-0.444123
1200.66	286.016	6458.44	3399.12	3756.11	317.394	309.34	309.334	6853.96	1.10049	19.7758
1200.86	285.816	9443.2	6454.43	2942.21	310.668	307.588	307.587	9092.14	-0.807796	-17.5528
1201.06	285.616	12754.6	11148.5	2128.63	306.249	305.144	305.144	12973.1	0.432498	10.922
1201.26	285.416	17346.9	17021.3	1455.08	302.125	301.756	301.756	18175	1.40589	41.4046
1201.46	285.216	22575.2	22449.7	969.343	297.458	297.343	297.343	23121.8	0.813458	27.3298
1201.66	285.016	25985.4	25128.6	654.829	292.227	292.193	292.193	25491.3	-0.685436	-24.7068
1201.86	284.816	23463.8	23640.9	469.258	287.238	287.228	287.228	23822.9	0.524266	17.9571
1202.06	284.616	18859.9	18800.7	368.163	282.997	282.994	282.994	18885.8	0.0422154	1.29636
1202.26	284.416	12298.3	12831.7	317.355	280.148	280.147	280.147	12868.9	1.15054	28.5304
1202.46	284.216	6903.56	7678.34	293.626	278.439	278.438	278.438	7693.53	2.12597	39.4983
1202.66	284.016	3931.9	4130.92	283.301	277.508	277.508	277.508	4136.72	0.730375	10.2408
1202.86	283.816	2579.44	2066.48	279.064	276.998	276.998	276.998	2068.55	-2.24932	-25.5446
1203.06	283.616	1523.45	1022.92	277.406	276.718	276.718	276.718	1023.61	-2.86352	-24.9919
1203.26	283.416	928.108	557.849	276.775	276.56	276.56	276.56	558.063	-2.71607	-18.5022
1203.46	283.216	578.3	372.143	276.553	276.491	276.491	276.491	372.205	-1.91635	-10.3047
1203.66	283.016	593.648	305.756	276.443	276.426	276.426	276.426	305.773	-2.64195	-14.3937
1203.86	282.816	578.334	284.542	276.374	276.37	276.37	276.37	284.546	-2.73168	-14.6894
1204.06	282.616	500.448	278.368	276.313	276.312	276.312	276.312	278.369	-2.21979	-11.1039
1204.26	282.416	356.576	276.731	276.266	276.266	276.266	276.266	276.732	-0.945481	-3.99221
1204.46	282.216	327.942	276.331	276.235	276.235	276.235	276.235	276.331	-0.63728	-2.58056
1204.66	282.016	336.096	276.244	276.226	276.226	276.226	276.226	276.244	-0.73002	-2.99262
1204.86	281.816	238.668	276.222	276.22	276.22	276.22	276.22	276.222	0.543563	1.87772
1205.06	281.616	291.228	276.216	276.216	276.216	276.216	276.216	276.216	-0.196695	-0.750578
1205.26	281.416	199.26	199.26	199.26	199.26	199.26	199.26	199.26	0	0
1205.46	281.216	241.73	241.73	241.73	241.73	241.73	241.73	241.73	0	0
1205.66	281.016	160.794	160.794	160.794	160.794	160.794	160.794	160.794	0	0
1205.86	280.816	304.842	304.842	304.842	304.842	304.842	304.842	304.842	0	0
1206.06	280.616	205.338	205.338	205.338	205.338	205.338	205.338	205.338	0	0
1206.26	280.416	186.245	186.245	186.245	186.245	186.245	186.245	186.245	0	0
1206.46	280.216	133.246	133.246	133.246	133.246	133.246	133.246	133.246	0	0
1206.66	280.016	116.843	116.843	116.843	116.843	116.843	116.843	116.843	0	0
1206.86	279.816	107.678	107.678	107.678	107.678	107.678	107.678	107.678	0	0
1207.06	279.616	187.649	187.649	187.649	187.649	187.649	187.649	187.649	0	0
1207.26	279.416	237.332	237.332	237.332	237.332	237.332	237.332	237.332	0	0
1207.46	279.216	185.346	185.346	185.346	185.346	185.346	185.346	185.346	0	0
1207.66	279.016	48.5846	48.5846	48.5846	48.5846	48.5846	48.5846	48.5846	0	0
1207.86	278.816	90.6826	90.6826	90.6826	90.6826	90.6826	90.6826	90.6826	0	0