File: XPS/250418_195-2.2.csv
C1s Scan
	Characteristic Energy eV	1486.68	Acquisition Time s	0.05
KE_C1s Scan	BE_C1s Scan	CPS_C1s Scan	C-C/C-H_1_C1s Scan	C-O_2_C1s Scan	C=O_3_C1s Scan	O-C=O_4_C1s Scan	Background_C1s Scan	Envelope_C1s Scan	Normalised_Residual_C1s Scan	Residual_C1s Scan
1188.89	297.786	1444.07	1444.07	1444.07	1444.07	1444.07	1444.07	1444.07	0	0
1189.09	297.586	1284.01	1284.01	1284.01	1284.01	1284.01	1284.01	1284.01	0	0
1189.29	297.386	1149.7	1149.7	1149.7	1149.7	1149.7	1149.7	1149.7	0	0
1189.49	297.186	1080.56	1080.56	1080.56	1080.56	1080.56	1080.56	1080.56	0	0
1189.69	296.986	1377.7	1377.7	1377.7	1377.7	1377.7	1377.7	1377.7	0	0
1189.89	296.786	1351.43	1351.43	1351.43	1351.43	1351.43	1351.43	1351.43	0	0
1190.09	296.586	1234.84	1234.84	1234.84	1234.84	1234.84	1234.84	1234.84	0	0
1190.29	296.386	1249.94	1249.94	1249.94	1249.94	1249.94	1249.94	1249.94	0	0
1190.49	296.186	1097.66	1097.66	1097.66	1097.66	1097.66	1097.66	1097.66	0	0
1190.69	295.986	1017.2	1017.2	1017.2	1017.2	1017.2	1017.2	1017.2	0	0
1190.89	295.786	1090.81	1090.81	1090.81	1090.81	1090.81	1090.81	1090.81	0	0
1191.09	295.586	1199.21	1199.21	1199.21	1199.21	1199.21	1199.21	1199.21	0	0
1191.29	295.386	892.54	892.54	892.54	892.54	892.54	892.54	892.54	0	0
1191.49	295.186	923.2	923.2	923.2	923.2	923.2	923.2	923.2	0	0
1191.69	294.986	953.22	953.22	953.22	953.22	953.22	953.22	953.22	0	0
1191.89	294.786	866.336	866.336	866.336	866.336	866.336	866.336	866.336	0	0
1192.09	294.586	879.394	879.394	879.394	879.394	879.394	879.394	879.394	0	0
1192.29	294.386	922.658	922.658	922.658	922.658	922.658	922.658	922.658	0	0
1192.49	294.186	725.698	725.698	725.698	725.698	725.698	725.698	725.698	0	0
1192.69	293.986	436.634	436.634	436.634	436.634	436.634	436.634	436.634	0	0
1192.89	293.786	641.806	641.806	641.806	641.806	641.806	641.806	641.806	0	0
1193.09	293.586	771.248	771.248	771.248	771.248	771.248	771.248	771.248	0	0
1193.29	293.386	411.688	411.688	411.688	411.688	411.688	411.688	411.688	0	0
1193.49	293.186	742.436	742.436	742.436	742.436	742.436	742.436	742.436	0	0
1193.69	292.986	609.058	609.058	609.058	609.058	609.058	609.058	609.058	0	0
1193.89	292.786	534.304	534.304	534.304	534.304	534.304	534.304	534.304	0	0
1194.09	292.586	396.628	396.628	396.628	396.628	396.629	396.628	396.629	0	0
1194.29	292.386	325.57	325.57	325.57	325.57	325.574	325.57	325.574	0	0
1194.49	292.186	319.238	319.238	319.238	319.238	319.253	319.238	319.253	0	0
1194.69	291.986	510.884	510.884	510.884	510.885	510.932	510.884	510.933	0	0
1194.89	291.786	364.658	364.658	364.658	364.66	364.801	364.658	364.803	0	0
1195.09	291.586	436.774	436.774	436.774	436.783	437.172	436.774	437.181	0	0
1195.29	291.386	352.178	352.178	352.178	352.212	353.208	352.178	353.242	0	0
1195.49	291.186	543.46	543.46	543.46	543.578	545.968	543.46	546.086	0	0
1195.69	290.986	233.836	428.184	428.184	428.562	433.86	428.184	434.238	2.93043	10.0201
1195.89	290.786	347.934	428.159	428.159	429.294	440.2	428.159	441.335	1.11966	4.67004
1196.09	290.586	360.026	428.143	428.143	431.312	451.873	428.143	455.042	1.11973	4.75079
1196.29	290.386	494.22	428.124	428.124	436.435	471.704	428.124	480.015	-0.142882	-0.71027
1196.49	290.186	397.526	428.096	428.097	448.383	502.062	428.096	522.349	1.3999	6.24115
1196.69	289.986	839.34	427.953	427.954	474.376	543.592	427.953	590.018	-1.92432	-12.4661
1196.89	289.786	584.898	427.863	427.87	526.776	592.825	427.863	691.743	0.987872	5.34227
1197.09	289.586	876.646	427.712	427.738	624.582	640.497	427.712	837.392	-0.296453	-1.9627
1197.29	289.386	1161.48	427.455	427.545	791.264	673.466	427.455	1037.37	-0.814355	-6.20591
1197.49	289.186	1539.3	427.058	427.365	1050.44	680.098	427.058	1303.78	-1.34227	-11.7757
1197.69	288.986	1422.22	426.65	427.617	1409.65	658.158	426.65	1642.12	1.30384	10.995
1197.89	288.786	2064.46	426	428.861	1842.73	614.998	426	2034.59	-0.146991	-1.49341
1198.09	288.586	2467.32	425.198	433.073	2273.49	564.101	425.198	2420.27	-0.211813	-2.35262
1198.29	288.386	2749.58	424.154	444.488	2586.1	516.948	424.154	2699.23	-0.214714	-2.51755
1198.49	288.186	2811.96	423.181	472.09	2676.11	479.985	423.181	2781.82	-0.127091	-1.50696
1198.69	287.986	2622.76	422.247	532.461	2508.36	454.381	422.244	2650.72	0.122068	1.39787
1198.89	287.786	2216.36	421.434	652.668	2145.06	438.267	421.417	2393.18	0.839823	8.84082
1199.09	287.586	2252.32	420.666	873.62	1701.07	428.806	420.568	2162.46	-0.423392	-4.49306
1199.29	287.386	2026.72	420.391	1243.27	1283.47	423.629	419.879	2111.12	0.419214	4.22005
1199.49	287.186	2518.26	421.468	1805.35	952.753	420.686	419.088	2343	-0.780949	-8.7631
1199.69	286.986	3017.54	427.958	2562.25	722.233	418.679	418.044	2876.99	-0.572142	-7.02774
1199.89	286.786	3740.64	453.664	3442.18	577.55	416.895	416.659	3640.31	-0.366795	-5.01628
1200.09	286.586	4412.66	538.807	4271.32	494.147	415.065	414.983	4474.39	0.207789	3.08643
1200.29	286.386	5667.8	784.316	4810.91	449.326	413.002	412.975	5218.62	-1.33412	-22.4588
1200.49	286.186	5682.88	1407.85	4876.56	426.411	410.84	410.832	5889.16	0.611865	10.3139
1200.69	285.986	6441.44	2798.63	4437.29	414.555	408.315	408.312	6833.84	1.09327	19.6202
1200.89	285.786	8788.96	5495.46	3654.13	407.21	404.874	404.873	8747.05	-0.0999715	-2.0957
1201.09	285.586	13226.7	9942.53	2760.63	400.733	399.916	399.916	12304.1	-1.79387	-46.1319
1201.29	285.386	17078.3	15916.4	1953.09	393.443	393.175	393.175	17476.6	0.681581	19.917
1201.49	285.186	22153.6	21892.8	1331.17	384.451	384.37	384.369	22839.7	1.03073	34.3046
1201.69	284.986	25294	25287.1	903.627	373.562	373.539	373.539	25817.2	0.735641	26.1613
1201.89	284.786	24348.4	24230.8	639.049	362.884	362.878	362.878	24506.9	0.22718	7.92666
1202.09	284.586	19674.8	19327.9	487.419	353.859	353.857	353.857	19461.5	-0.340103	-10.6672
1202.29	284.386	12663.7	13056.9	408.201	347.686	347.686	347.686	13117.5	0.901555	22.686
1202.49	284.186	7320.1	7658.29	369.644	344.161	344.161	344.161	7683.77	0.950471	18.1837
1202.69	283.986	3786.28	4020.62	352.436	342.349	342.349	342.349	4030.7	0.888222	12.2212
1202.89	283.786	2327.78	1977.1	345.082	341.375	341.375	341.375	1980.81	-1.60808	-17.3486
1203.09	283.586	1203.47	988.663	342.074	340.791	340.791	340.791	989.946	-1.37628	-10.676
1203.29	283.386	888.324	569.969	340.898	340.487	340.487	340.487	570.381	-2.38533	-15.8972
1203.49	283.186	969.148	413.108	340.412	340.288	340.288	340.288	413.232	-3.99299	-27.7958
1203.69	282.986	577.41	360.864	340.185	340.15	340.15	340.15	360.899	-2.01476	-10.8256
1203.89	282.786	546.272	345.357	340.085	340.076	340.076	340.076	345.366	-1.92209	-10.0453
1204.09	282.586	387.182	341.251	340.047	340.044	340.044	340.044	341.253	-0.52193	-2.29644
1204.29	282.386	347.238	340.272	340.025	340.025	340.025	340.025	340.272	-0.0835861	-0.348283
1204.49	282.186	323.744	340.052	340.007	340.006	340.006	340.006	340.052	0.202664	0.815385
1204.69	281.986	338.28	340.011	340.003	340.003	340.003	340.003	340.011	0.0210419	0.0865384
1204.89	281.786	351.916	339.994	339.993	339.993	339.993	339.993	339.994	-0.142104	-0.596087
1205.09	281.586	398.33	339.965	339.965	339.965	339.965	339.965	339.965	-0.653909	-2.91826
1205.29	281.386	235.696	235.696	235.696	235.696	235.696	235.696	235.696	0	0
1205.49	281.186	255.502	255.502	255.502	255.502	255.502	255.502	255.502	0	0
1205.69	280.986	309.008	309.008	309.008	309.008	309.008	309.008	309.008	0	0
1205.89	280.786	302.19	302.19	302.19	302.19	302.19	302.19	302.19	0	0
1206.09	280.586	239.244	239.244	239.244	239.244	239.244	239.244	239.244	0	0
1206.29	280.386	307.164	307.164	307.164	307.164	307.164	307.164	307.164	0	0
1206.49	280.186	175.768	175.768	175.768	175.768	175.768	175.768	175.768	0	0
1206.69	279.986	138.543	138.543	138.543	138.543	138.543	138.543	138.543	0	0
1206.89	279.786	90.2654	90.2654	90.2654	90.2654	90.2654	90.2654	90.2654	0	0
1207.09	279.586	159.705	159.705	159.705	159.705	159.705	159.705	159.705	0	0
1207.29	279.386	163.528	163.528	163.528	163.528	163.528	163.528	163.528	0	0
1207.49	279.186	176.359	176.359	176.359	176.359	176.359	176.359	176.359	0	0
1207.69	278.986	198.173	198.173	198.173	198.173	198.173	198.173	198.173	0	0
1207.89	278.786	106.158	106.158	106.158	106.158	106.158	106.158	106.158	0	0