File: XPS/250418_191x195-3.1.csv
C1s Scan
	Characteristic Energy eV	1486.68	Acquisition Time s	0.05
KE_C1s Scan	BE_C1s Scan	CPS_C1s Scan	C-C/C-H_1_C1s Scan	C-O_2_C1s Scan	C=O_3_C1s Scan	O-C=O_4_C1s Scan	Background_C1s Scan	Envelope_C1s Scan	Normalised_Residual_C1s Scan	Residual_C1s Scan
1189.44	297.242	1969.89	1969.89	1969.89	1969.89	1969.89	1969.89	1969.89	0	0
1189.64	297.042	2201.48	2201.48	2201.48	2201.48	2201.48	2201.48	2201.48	0	0
1189.84	296.842	2058.7	2058.7	2058.7	2058.7	2058.7	2058.7	2058.7	0	0
1190.04	296.642	1947.46	1947.46	1947.46	1947.46	1947.46	1947.46	1947.46	0	0
1190.24	296.442	1988.82	1988.82	1988.82	1988.82	1988.82	1988.82	1988.82	0	0
1190.44	296.242	1964.29	1964.29	1964.29	1964.29	1964.29	1964.29	1964.29	0	0
1190.64	296.042	2155.58	2155.58	2155.58	2155.58	2155.58	2155.58	2155.58	0	0
1190.84	295.842	2040.28	2040.28	2040.28	2040.28	2040.28	2040.28	2040.28	0	0
1191.04	295.642	1943.21	1943.21	1943.21	1943.21	1943.21	1943.21	1943.21	0	0
1191.24	295.442	1735.34	1735.34	1735.34	1735.34	1735.34	1735.34	1735.34	0	0
1191.44	295.242	1786.23	1786.23	1786.23	1786.23	1786.23	1786.23	1786.23	0	0
1191.64	295.042	1710.58	1710.58	1710.58	1710.58	1710.58	1710.58	1710.58	0	0
1191.84	294.842	2006.44	2006.44	2006.44	2006.44	2006.44	2006.44	2006.44	0	0
1192.04	294.642	1885.16	1885.16	1885.16	1885.16	1885.16	1885.16	1885.16	0	0
1192.24	294.442	1957.79	1957.79	1957.79	1957.79	1957.79	1957.79	1957.79	0	0
1192.44	294.242	1750.61	1750.61	1750.61	1750.61	1750.61	1750.61	1750.61	0	0
1192.64	294.042	1698.53	1698.53	1698.53	1698.53	1698.53	1698.53	1698.53	0	0
1192.84	293.842	2177.38	2177.38	2177.38	2177.38	2177.38	2177.38	2177.38	0	0
1193.04	293.642	1707.16	1707.16	1707.16	1707.16	1707.16	1707.16	1707.16	0	0
1193.24	293.442	1334.86	1334.86	1334.86	1334.86	1334.86	1334.86	1334.86	0	0
1193.44	293.242	1856.1	1856.1	1856.1	1856.1	1856.1	1856.1	1856.1	0	0
1193.64	293.042	1601.34	1601.34	1601.34	1601.34	1601.34	1601.34	1601.34	0	0
1193.84	292.842	1364.61	1364.61	1364.61	1364.61	1364.61	1364.61	1364.61	0	0
1194.04	292.642	1628.31	1628.31	1628.31	1628.31	1628.32	1628.31	1628.32	0	0
1194.24	292.442	1625.72	1625.72	1625.72	1625.72	1625.75	1625.72	1625.75	0	0
1194.44	292.242	1573.71	1573.71	1573.71	1573.71	1573.78	1573.71	1573.79	0	0
1194.64	292.042	1446	1446	1446	1446.01	1446.21	1446	1446.22	0	0
1194.84	291.842	1489.9	1489.9	1489.9	1489.92	1490.46	1489.9	1490.48	0	0
1195.04	291.642	1456.79	1456.79	1456.79	1456.84	1458.19	1456.79	1458.24	0	0
1195.24	291.442	1415.03	1414.32	1414.32	1414.46	1417.64	1414.32	1417.79	0.0163644	0.137648
1195.44	291.242	1250.23	1414.28	1414.28	1414.65	1421.75	1414.28	1422.11	1.08699	8.59418
1195.64	291.042	1325.82	1414.25	1414.25	1415.16	1430.17	1414.25	1431.08	0.646393	5.26289
1195.84	290.842	1420.81	1414.18	1414.18	1416.31	1446.44	1414.18	1448.57	0.164692	1.38812
1196.04	290.642	1282.04	1414.15	1414.15	1418.88	1476.15	1414.15	1480.88	1.24177	9.9421
1196.24	290.442	1686.65	1414.07	1414.07	1424.03	1526.87	1414.07	1536.83	-0.815732	-7.49109
1196.44	290.242	1763.46	1413.97	1413.98	1433.86	1607.89	1413.97	1627.78	-0.722485	-6.78417
1196.64	290.042	1876.32	1413.82	1413.84	1451.5	1728.11	1413.82	1765.8	-0.57052	-5.52598
1196.84	289.842	1739.53	1413.68	1413.73	1481.32	1892.24	1413.68	1959.92	1.18157	11.0195
1197.04	289.642	1856.81	1413.44	1413.56	1528.09	2094.93	1413.44	2209.72	1.83128	17.6451
1197.24	289.442	2623.26	1412.97	1413.33	1596.03	2314.52	1412.97	2497.94	-0.547145	-6.26625
1197.44	289.242	2528.34	1412.5	1413.46	1686.73	2513.31	1412.5	2788.5	1.15694	13.008
1197.64	289.042	3103.54	1411.68	1414.11	1795.22	2645.1	1411.68	3031.07	-0.290895	-3.62368
1197.84	288.842	3017.68	1410.95	1416.78	1908.62	2674.11	1410.95	3177.62	0.651034	7.99696
1198.04	288.642	3414.92	1410.15	1423.43	2005.19	2591.3	1410.15	3199.62	-0.823847	-10.7652
1198.24	288.442	2892.28	1409.49	1438.24	2061.46	2420	1409.48	3100.73	0.866702	10.4226
1198.44	288.242	3144.48	1408.68	1467.74	2061.23	2204.28	1408.67	2915.92	-0.911403	-11.428
1198.64	288.042	2482.32	1408.14	1523.09	2004.71	1988.23	1408.1	2699.87	0.97637	10.8775
1198.84	287.842	2597.48	1407.83	1619.61	1907.42	1801.83	1407.64	2513.78	-0.367234	-4.18508
1199.04	287.642	2719.14	1407.88	1776.66	1792.86	1658.08	1407.14	2414.05	-1.30825	-15.2543
1199.24	287.442	2359.66	1409.4	2014.66	1682.97	1557.14	1406.79	2443.8	0.387335	4.20723
1199.44	287.242	2988.86	1414.76	2347.52	1590.82	1491.39	1406.24	2625.76	-1.48512	-18.1551
1199.64	287.042	3081.74	1431.29	2769.38	1521.35	1451.24	1405.62	2956.41	-0.50484	-6.26666
1199.84	286.842	3527.82	1476.3	3243.25	1473.06	1427.89	1404.73	3406.3	-0.457487	-6.07599
1200.04	286.642	3726.72	1588.11	3695.46	1441.81	1414.84	1403.7	3929.11	0.741341	10.1197
1200.24	286.442	4135.82	1841.63	4027.86	1422.7	1407.63	1402.55	4492.16	1.23901	17.8172
1200.44	286.242	5551.24	2365.78	4151.25	1410.95	1403.05	1400.85	5128.49	-1.26875	-21.1376
1200.64	286.042	6211.92	3352.06	4028.62	1403.87	1399.97	1399.07	5987.32	-0.637204	-11.2299
1200.84	285.842	7332.4	5023.39	3695.98	1398.69	1396.89	1396.53	7325.36	-0.018395	-0.352214
1201.04	285.642	9303	7536.55	3241	1394.31	1393.52	1393.39	9385.22	0.190615	4.11105
1201.24	285.442	12317.1	10790.6	2761.41	1389.36	1389.03	1388.99	12163.4	-0.309695	-7.68554
1201.44	285.242	15758.8	14240	2331.58	1383.34	1383.21	1383.2	15188.6	-1.01563	-28.5088
1201.64	285.042	18206.3	16902.6	1989.67	1376.27	1376.22	1376.22	17516.1	-1.14378	-34.5094
1201.84	284.842	17749.9	17775.7	1742.33	1369.02	1369.01	1369.01	18149	0.669897	19.9568
1202.04	284.642	15872.2	16486.6	1576.77	1362.41	1362.41	1362.41	16701	1.47098	41.4392
1202.24	284.442	13431.4	13573.6	1473.01	1356.63	1356.63	1356.63	13690	0.498954	12.9302
1202.44	284.242	9496.14	10087.1	1412.32	1352.49	1352.49	1352.49	10146.9	1.49331	32.5393
1202.64	284.042	7986.08	6942.85	1378.65	1349.51	1349.51	1349.51	6971.99	-2.53743	-50.7044
1202.84	283.842	4782.66	4590.4	1361.22	1347.72	1347.72	1347.72	4603.9	-0.578002	-8.93819
1203.04	283.642	3586.66	3062.63	1352.66	1346.73	1346.73	1346.73	3068.57	-1.93441	-25.9047
1203.24	283.442	3075.68	2179.48	1348.42	1345.94	1345.94	1345.94	2181.96	-3.60345	-44.6862
1203.44	283.242	2423.96	1718.95	1346.51	1345.53	1345.53	1345.53	1719.93	-3.19751	-35.2014
1203.64	283.042	1604.29	1499.8	1345.7	1345.33	1345.33	1345.33	1500.17	-0.581284	-5.20612
1203.84	282.842	1703.81	1404.23	1345.31	1345.18	1345.18	1345.18	1404.36	-1.62217	-14.9725
1204.04	282.642	1356.98	1365.93	1345.1	1345.05	1345.05	1345.05	1365.97	0.0546251	0.449949
1204.24	282.442	1586.34	1351.77	1344.96	1344.95	1344.95	1344.95	1351.79	-1.31683	-11.7277
1204.44	282.242	1892.3	1346.87	1344.82	1344.81	1344.81	1344.81	1346.88	-2.80366	-27.2713
1204.64	282.042	1347.77	1345.37	1344.8	1344.8	1344.8	1344.8	1345.37	-0.0145921	-0.119787
1204.84	281.842	1611.34	1344.83	1344.68	1344.68	1344.68	1344.68	1344.83	-1.48461	-13.3257
1205.04	281.642	1142.85	1344.67	1344.63	1344.63	1344.63	1344.63	1344.67	1.33494	10.0912
1205.24	281.442	1430.51	1344.6	1344.59	1344.59	1344.59	1344.59	1344.6	-0.507904	-4.29548
1205.44	281.242	1129.54	1344.52	1344.52	1344.52	1344.52	1344.52	1344.52	1.43033	10.7491
1205.64	281.042	1413.97	1344.48	1344.48	1344.48	1344.48	1344.48	1344.48	-0.413236	-3.47459
1205.84	280.842	1533.96	1533.96	1533.96	1533.96	1533.96	1533.96	1533.96	0	0
1206.04	280.642	1312.97	1312.97	1312.97	1312.97	1312.97	1312.97	1312.97	0	0
1206.24	280.442	1403.96	1403.96	1403.96	1403.96	1403.96	1403.96	1403.96	0	0
1206.44	280.242	1239.1	1239.1	1239.1	1239.1	1239.1	1239.1	1239.1	0	0
1206.64	280.042	1196.27	1196.27	1196.27	1196.27	1196.27	1196.27	1196.27	0	0
1206.84	279.842	1190.09	1190.09	1190.09	1190.09	1190.09	1190.09	1190.09	0	0
1207.04	279.642	1452.83	1452.83	1452.83	1452.83	1452.83	1452.83	1452.83	0	0
1207.24	279.442	1279.52	1279.52	1279.52	1279.52	1279.52	1279.52	1279.52	0	0
1207.44	279.242	930.19	930.19	930.19	930.19	930.19	930.19	930.19	0	0
1207.64	279.042	1215.33	1215.33	1215.33	1215.33	1215.33	1215.33	1215.33	0	0
1207.84	278.842	1100.09	1100.09	1100.09	1100.09	1100.09	1100.09	1100.09	0	0
1208.04	278.642	1208.19	1208.19	1208.19	1208.19	1208.19	1208.19	1208.19	0	0
1208.24	278.442	1481.09	1481.09	1481.09	1481.09	1481.09	1481.09	1481.09	0	0
1208.44	278.242	1375.66	1375.66	1375.66	1375.66	1375.66	1375.66	1375.66	0	0