File: XPS/250418_195-3.3.csv
C1s Scan
	Characteristic Energy eV	1486.68	Acquisition Time s	0.05
KE_C1s Scan	BE_C1s Scan	CPS_C1s Scan	C-C/C-H_1_C1s Scan	C-O_2_C1s Scan	C=O_3_C1s Scan	O-C=O_4_C1s Scan	Background_C1s Scan	Envelope_C1s Scan	Normalised_Residual_C1s Scan	Residual_C1s Scan
1189.29	297.393	1771.29	1771.29	1771.29	1771.29	1771.29	1771.29	1771.29	0	0
1189.49	297.193	1940.88	1940.88	1940.88	1940.88	1940.88	1940.88	1940.88	0	0
1189.69	296.993	1952.89	1952.89	1952.89	1952.89	1952.89	1952.89	1952.89	0	0
1189.89	296.793	1779.59	1779.59	1779.59	1779.59	1779.59	1779.59	1779.59	0	0
1190.09	296.593	2071.02	2071.02	2071.02	2071.02	2071.02	2071.02	2071.02	0	0
1190.29	296.393	1989.17	1989.17	1989.17	1989.17	1989.17	1989.17	1989.17	0	0
1190.49	296.193	1757.36	1757.36	1757.36	1757.36	1757.36	1757.36	1757.36	0	0
1190.69	295.993	1988.28	1988.28	1988.28	1988.28	1988.28	1988.28	1988.28	0	0
1190.89	295.793	2037.42	2037.42	2037.42	2037.42	2037.42	2037.42	2037.42	0	0
1191.09	295.593	1658.32	1658.32	1658.32	1658.32	1658.32	1658.32	1658.32	0	0
1191.29	295.393	1746.94	1746.94	1746.94	1746.94	1746.94	1746.94	1746.94	0	0
1191.49	295.193	1399.25	1399.25	1399.25	1399.25	1399.25	1399.25	1399.25	0	0
1191.69	294.993	1571.11	1571.11	1571.11	1571.11	1571.11	1571.11	1571.11	0	0
1191.89	294.793	1674.81	1674.81	1674.81	1674.81	1674.81	1674.81	1674.81	0	0
1192.09	294.593	1541.43	1541.43	1541.43	1541.43	1541.43	1541.43	1541.43	0	0
1192.29	294.393	1504.93	1504.93	1504.93	1504.93	1504.93	1504.93	1504.93	0	0
1192.49	294.193	1711.38	1711.38	1711.38	1711.38	1711.38	1711.38	1711.38	0	0
1192.69	293.993	1672.72	1672.72	1672.72	1672.72	1672.72	1672.72	1672.72	0	0
1192.89	293.793	1665.45	1665.45	1665.45	1665.45	1665.45	1665.45	1665.45	0	0
1193.09	293.593	1589.83	1589.83	1589.83	1589.83	1589.83	1589.83	1589.83	0	0
1193.29	293.393	1746.54	1746.54	1746.54	1746.54	1746.54	1746.54	1746.54	0	0
1193.49	293.193	1384.45	1384.45	1384.45	1384.45	1384.45	1384.45	1384.45	0	0
1193.69	292.993	1693.95	1693.95	1693.95	1693.95	1693.95	1693.95	1693.95	0	0
1193.89	292.793	1712.37	1712.37	1712.37	1712.37	1712.37	1712.37	1712.37	0	0
1194.09	292.593	1822.76	1623.2	1623.2	1623.2	1623.2	1623.2	1623.2	-1.04519	-9.97804
1194.29	292.393	1767.16	1623	1623	1623	1623	1623	1623	-0.766804	-7.20786
1194.49	292.193	1452.39	1622.84	1622.84	1622.84	1622.85	1622.84	1622.85	1.00018	8.52325
1194.69	291.993	1577.1	1622.71	1622.71	1622.71	1622.74	1622.71	1622.74	0.257013	2.28228
1194.89	291.793	1552.11	1622.42	1622.42	1622.42	1622.53	1622.42	1622.53	0.399706	3.52116
1195.09	291.593	1098.24	1621.79	1621.79	1621.79	1622.14	1621.79	1622.14	3.53495	26.1949
1195.29	291.393	1435.18	1621.35	1621.35	1621.35	1622.32	1621.35	1622.32	1.10461	9.3572
1195.49	291.193	1721.27	1621.02	1621.02	1621.03	1623.61	1621.02	1623.61	-0.526323	-4.88272
1195.69	290.993	1682.73	1620.93	1620.93	1620.95	1627.35	1620.93	1627.36	-0.301782	-2.76813
1195.89	290.793	1457.54	1620.65	1620.65	1620.71	1635.63	1620.65	1635.68	1.04335	8.90685
1196.09	290.593	1663.96	1620.49	1620.49	1620.64	1653.11	1620.49	1653.25	-0.0586904	-0.535332
1196.29	290.393	1900.93	1620.07	1620.07	1620.46	1686.64	1620.07	1687.02	-1.09703	-10.6951
1196.49	290.193	1472.56	1619.86	1619.86	1620.81	1746.75	1619.86	1747.7	1.60324	13.7569
1196.69	289.993	1666.04	1619.82	1619.82	1622.03	1844.78	1619.82	1847	0.991359	9.04812
1196.89	289.793	2099.38	1619.41	1619.42	1624.21	1989.85	1619.41	1994.66	-0.511073	-5.23616
1197.09	289.593	2317.88	1618.54	1618.58	1628.31	2180.11	1618.54	2189.92	-0.594296	-6.39784
1197.29	289.393	2247.96	1617.32	1617.45	1635.86	2395.68	1617.32	2414.35	0.784722	8.31946
1197.49	289.193	2839.26	1615.5	1615.89	1648.29	2592.74	1615.5	2625.91	-0.895295	-10.6673
1197.69	288.993	2554.54	1613.97	1615.1	1667.7	2716.64	1613.97	2771.49	0.959835	10.8477
1197.89	288.793	2866.22	1612.2	1615.19	1693.28	2723.37	1612.2	2807.45	-0.245459	-2.93845
1198.09	288.593	2643.52	1610.24	1617.76	1722.08	2610.76	1610.23	2730.14	0.376734	4.33123
1198.29	288.393	2493.24	1608.66	1626.34	1748.36	2417.26	1608.66	2574.66	0.36461	4.07095
1198.49	288.193	2300.52	1607.52	1646.37	1764.19	2198.7	1607.5	2394.29	0.437173	4.68868
1198.69	287.993	2218.64	1606.61	1686.6	1763.49	2001.08	1606.49	2238.31	0.093386	0.983582
1198.89	287.793	1994.58	1605.9	1759.37	1746.06	1847.98	1605.45	2142.96	0.742864	7.41857
1199.09	287.593	1898.91	1606.38	1880.73	1717.77	1742.89	1604.78	2133.43	1.2034	11.7259
1199.29	287.393	2163.18	1609.11	2062.62	1686.05	1676.94	1603.84	2223.2	0.288554	3.00095
1199.49	287.193	2320.2	1618.65	2305.93	1657.23	1638.83	1602.61	2412.82	0.429972	4.63114
1199.69	286.993	2603.32	1646.23	2588.26	1634.55	1617.86	1601.11	2683.58	0.351734	4.01294
1199.89	286.793	3118.84	1716.03	2855.39	1617.72	1606.02	1598.76	2998.88	-0.48033	-5.9982
1200.09	286.593	3468.92	1877.73	3034.51	1606.15	1599.09	1596.13	3329.07	-0.530952	-6.99257
1200.29	286.393	4003.62	2216.92	3064.62	1597.83	1594.01	1592.89	3694.71	-1.09166	-15.4454
1200.49	286.193	4200.34	2863.21	2935.01	1591.82	1589.94	1589.54	4211.35	0.0379916	0.550573
1200.69	285.993	4754.04	3970.01	2686.71	1585.44	1584.59	1584.46	5073.38	1.03563	15.967
1200.89	285.793	6349.86	5653.84	2393.57	1577.67	1577.31	1577.27	6470.58	0.338762	6.03618
1201.09	285.593	8576.74	7869.74	2118.57	1567.48	1567.35	1567.33	8421.14	-0.375691	-7.77995
1201.29	285.393	10951.6	10272.6	1895.98	1553.57	1553.52	1553.52	10615.1	-0.719123	-16.8278
1201.49	285.193	11861.9	12203.2	1734.04	1537.29	1537.27	1537.27	12400	1.10459	26.9008
1201.69	284.993	13475.2	12943.5	1624.48	1519.15	1519.15	1519.15	13048.8	-0.821205	-21.3159
1201.89	284.793	11932.8	12172.7	1555	1502.41	1502.41	1502.41	12225.3	0.59867	14.6233
1202.09	284.593	10201.6	10214.8	1513.01	1488.49	1488.49	1488.49	10239.4	0.0835553	1.88709
1202.29	284.393	7782.74	7787.25	1487.84	1477.1	1477.1	1477.1	7797.99	0.038647	0.762373
1202.49	284.193	5805.9	5552.87	1474.28	1469.88	1469.88	1469.88	5557.26	-0.729655	-12.4319
1202.69	283.993	4088.4	3855.03	1466.69	1465	1465	1465	3856.72	-0.810211	-11.584
1202.89	283.793	3229.96	2738.51	1462.71	1462.11	1462.11	1462.11	2739.11	-1.93122	-24.5423
1203.09	283.593	2327.24	2086.14	1460.82	1460.61	1460.61	1460.61	2086.34	-1.11659	-12.0448
1203.29	283.393	1917.42	1742.05	1459.78	1459.72	1459.72	1459.72	1742.11	-0.895233	-8.76557
1203.49	283.193	1520.79	1577.03	1459.44	1459.43	1459.43	1459.43	1577.05	0.322565	2.81279
1203.69	282.993	1749.4	1504.2	1458.95	1458.94	1458.94	1458.94	1504.2	-1.31085	-12.2598
1203.89	282.793	1515.76	1474.77	1458.68	1458.68	1458.68	1458.68	1474.77	-0.235396	-2.04927
1204.09	282.593	1801.14	1463.63	1458.34	1458.34	1458.34	1458.34	1463.63	-1.77826	-16.8754
1204.29	282.393	1554.05	1459.88	1458.27	1458.27	1458.27	1458.27	1459.88	-0.534187	-4.70881
1204.49	282.193	1525.57	1458.64	1458.18	1458.18	1458.18	1458.18	1458.64	-0.383191	-3.3467
1204.69	281.993	1310.97	1458.12	1458	1458	1458	1458	1458.12	0.908724	7.35722
1204.89	281.793	1244.93	1457.83	1457.8	1457.8	1457.8	1457.8	1457.83	1.34926	10.6452
1205.09	281.593	1272.52	1457.61	1457.61	1457.61	1457.61	1457.61	1457.61	1.16022	9.2546
1205.29	281.393	1421.06	1457.57	1457.57	1457.57	1457.57	1457.57	1457.57	0.216546	1.82533
1205.49	281.193	1588.81	1457.46	1457.46	1457.46	1457.46	1457.46	1457.46	-0.736864	-6.56762
1205.69	280.993	1575.88	1575.88	1575.88	1575.88	1575.88	1575.88	1575.88	0	0
1205.89	280.793	1139.11	1139.11	1139.11	1139.11	1139.11	1139.11	1139.11	0	0
1206.09	280.593	1450.36	1450.36	1450.36	1450.36	1450.36	1450.36	1450.36	0	0
1206.29	280.393	1217.41	1217.41	1217.41	1217.41	1217.41	1217.41	1217.41	0	0
1206.49	280.193	1412.75	1412.75	1412.75	1412.75	1412.75	1412.75	1412.75	0	0
1206.69	279.993	1281.25	1281.25	1281.25	1281.25	1281.25	1281.25	1281.25	0	0
1206.89	279.793	1228.01	1228.01	1228.01	1228.01	1228.01	1228.01	1228.01	0	0
1207.09	279.593	1598.1	1598.1	1598.1	1598.1	1598.1	1598.1	1598.1	0	0
1207.29	279.393	1308.33	1308.33	1308.33	1308.33	1308.33	1308.33	1308.33	0	0
1207.49	279.193	1222.65	1222.65	1222.65	1222.65	1222.65	1222.65	1222.65	0	0
1207.69	278.993	1491.18	1491.18	1491.18	1491.18	1491.18	1491.18	1491.18	0	0
1207.89	278.793	1453.48	1453.48	1453.48	1453.48	1453.48	1453.48	1453.48	0	0
1208.09	278.593	1471.77	1471.77	1471.77	1471.77	1471.77	1471.77	1471.77	0	0
1208.29	278.393	1294.25	1294.25	1294.25	1294.25	1294.25	1294.25	1294.25	0	0