File: XPS/250418_C-2.1.csv
C1s Scan
	Characteristic Energy eV	1486.68	Acquisition Time s	0.05
KE_C1s Scan	BE_C1s Scan	CPS_C1s Scan	C-C/C-H_1_C1s Scan	C-O_2_C1s Scan	C=O_3_C1s Scan	O-C=O_4_C1s Scan	Background_C1s Scan	Envelope_C1s Scan	Normalised_Residual_C1s Scan	Residual_C1s Scan
1189	297.681	3242.9	3242.9	3242.9	3242.9	3242.9	3242.9	3242.9	0	0
1189.2	297.481	2723.98	2723.98	2723.98	2723.98	2723.98	2723.98	2723.98	0	0
1189.4	297.281	2975.82	2975.82	2975.82	2975.82	2975.82	2975.82	2975.82	0	0
1189.6	297.081	2551.64	2551.64	2551.64	2551.64	2551.64	2551.64	2551.64	0	0
1189.8	296.881	2701.18	2701.18	2701.18	2701.18	2701.18	2701.18	2701.18	0	0
1190	296.681	2586.64	2586.64	2586.64	2586.64	2586.64	2586.64	2586.64	0	0
1190.2	296.481	2545.58	2545.58	2545.58	2545.58	2545.58	2545.58	2545.58	0	0
1190.4	296.281	2419.42	2419.42	2419.42	2419.42	2419.42	2419.42	2419.42	0	0
1190.6	296.081	2094.58	2094.58	2094.58	2094.58	2094.58	2094.58	2094.58	0	0
1190.8	295.881	1862.65	1862.65	1862.65	1862.65	1862.65	1862.65	1862.65	0	0
1191	295.681	2324.68	2324.68	2324.68	2324.68	2324.68	2324.68	2324.68	0	0
1191.2	295.481	1747.84	1747.84	1747.84	1747.84	1747.84	1747.84	1747.84	0	0
1191.4	295.281	1772.95	1772.95	1772.95	1772.95	1772.95	1772.95	1772.95	0	0
1191.6	295.081	1432.9	1432.9	1432.9	1432.9	1432.9	1432.9	1432.9	0	0
1191.8	294.881	1488.73	1488.73	1488.73	1488.73	1488.73	1488.73	1488.73	0	0
1192	294.681	1556.56	1556.56	1556.56	1556.56	1556.56	1556.56	1556.56	0	0
1192.2	294.481	1519.67	1519.67	1519.67	1519.67	1519.67	1519.67	1519.67	0	0
1192.4	294.281	1390.04	1390.04	1390.04	1390.04	1390.04	1390.04	1390.04	0	0
1192.6	294.081	1304.52	1304.52	1304.52	1304.52	1304.52	1304.52	1304.52	0	0
1192.8	293.881	1257.4	1257.4	1257.4	1257.4	1257.4	1257.4	1257.4	0	0
1193	293.681	1079.6	1079.6	1079.6	1079.6	1079.6	1079.6	1079.6	0	0
1193.2	293.481	987.678	987.678	987.678	987.678	987.678	987.678	987.678	0	0
1193.4	293.281	708.772	708.772	708.772	708.772	708.772	708.772	708.772	0	0
1193.6	293.081	880.09	880.09	880.09	880.09	880.09	880.09	880.09	0	0
1193.8	292.881	997.006	997.006	997.006	997.006	997.006	997.006	997.006	0	0
1194	292.681	868.21	868.21	868.21	868.21	868.21	868.21	868.21	0	0
1194.2	292.481	714.798	714.798	714.798	714.798	714.799	714.798	714.799	0	0
1194.4	292.281	660.058	660.058	660.058	660.058	660.061	660.058	660.061	0	0
1194.6	292.081	562.99	562.99	562.99	562.99	563.001	562.99	563.001	0	0
1194.8	291.881	566.19	566.19	566.19	566.19	566.229	566.19	566.229	0	0
1195	291.681	601.5	601.5	601.5	601.5	601.627	601.5	601.627	0	0
1195.2	291.481	430.28	430.28	430.28	430.28	430.66	430.28	430.66	0	0
1195.4	291.281	569.984	569.984	569.984	569.986	571.053	569.984	571.054	0	0
1195.6	291.081	445.264	481.194	481.194	481.2	483.995	481.194	484.002	0.410497	1.93688
1195.8	290.881	582.706	481.243	481.243	481.267	488.132	481.243	488.155	-0.875842	-4.72754
1196	290.681	618.684	481.308	481.308	481.387	497.08	481.308	497.16	-1.09248	-6.0762
1196.2	290.481	913.718	481.405	481.405	481.66	515.224	481.405	515.479	-2.94593	-19.912
1196.4	290.281	538.508	481.491	481.491	482.25	548.928	481.491	549.687	0.107715	0.558932
1196.6	290.081	488.246	481.513	481.514	483.628	606.835	481.513	608.951	1.2215	6.03526
1196.8	289.881	643.318	481.6	481.604	487.103	697.041	481.6	702.547	0.522164	2.96145
1197	289.681	692.324	481.713	481.728	495.113	823.26	481.713	836.674	1.22672	7.21748
1197.2	289.481	1030.74	481.945	481.999	512.394	976.661	481.945	1007.16	-0.16422	-1.17892
1197.4	289.281	990.12	482.197	482.386	546.843	1131.23	482.197	1196.06	1.46349	10.2972
1197.6	289.081	1188.7	482.577	483.202	610.43	1246.8	482.577	1375.28	1.21008	9.32902
1197.8	288.881	1595.57	483.025	484.948	718.194	1284.12	483.025	1521.22	-0.416224	-3.71766
1198	288.681	1589.75	483.584	489.144	884.015	1230.53	483.584	1636.52	0.262331	2.33883
1198.2	288.481	1465.73	484.112	499.042	1111.74	1104.79	484.112	1747.35	1.6448	14.0807
1198.4	288.281	1974.48	484.703	522.383	1382.96	948.391	484.703	1884.33	-0.453687	-4.50784
1198.6	288.081	2151.26	485.432	573.872	1648.31	799.809	485.432	2051.13	-0.482721	-5.00643
1198.8	287.881	2277.02	486.168	680.842	1835.41	681.173	486.166	2225.1	-0.24329	-2.59593
1199	287.681	2068.88	486.894	885.251	1880.69	598.617	486.87	2390.84	1.58278	16.0981
1199.2	287.481	2584.64	487.883	1248.9	1767.56	546.955	487.711	2588.17	0.0155139	0.176362
1199.4	287.281	3483.76	490.008	1835.62	1537.9	518.246	488.927	2914.99	-2.15474	-28.4383
1199.6	287.081	3530.4	496.169	2693.72	1263.76	503.671	490.19	3486.75	-0.164269	-2.18249
1199.8	286.881	4020.08	520.652	3795.03	1010.09	497.637	491.823	4347.94	1.15628	16.3932
1200	286.681	4854.06	615.246	4995.83	812.078	496.092	493.761	5437.96	1.87401	29.1951
1200.2	286.481	6070.98	947.207	6021.56	676.671	497.127	496.248	6653.82	1.67264	29.1418
1200.4	286.281	7707.06	1961.05	6549.28	594.223	499.601	499.293	8106.27	1.01682	19.9606
1200.6	286.081	10327	4638.8	6397.32	549.83	503.471	503.37	10579.3	0.555261	12.6174
1200.8	285.881	16582.4	10714.1	5616.73	530.995	509.792	509.761	15842.4	-1.28512	-37.0045
1201	285.681	27009.2	22204.4	4486.28	529.275	520.234	520.225	26179.5	-1.12882	-41.4827
1201.2	285.481	42229	39622.4	3321.95	540.921	537.312	537.309	42410.7	0.197704	9.08461
1201.4	285.281	58495	58987.2	2345.31	563.041	561.698	561.697	60772.2	2.10536	113.86
1201.6	285.081	72356	71171.4	1644.69	592.869	592.4	592.4	72224.2	-0.109583	-6.59121
1201.8	284.881	71305.6	68472.1	1198.13	624.539	624.386	624.386	69046	-1.89218	-112.982
1202	284.681	52669.6	52707.7	941.667	650.29	650.244	650.244	52999.2	0.321123	16.4792
1202.2	284.481	31623.2	33226.4	803.808	666.243	666.23	666.23	33364	2.18892	87.0398
1202.4	284.281	17381.5	17703.2	735.876	675.051	675.048	675.048	17764	0.648798	19.1266
1202.6	284.081	8986.1	8279.72	704.664	679.634	679.633	679.633	8304.75	-1.6072	-34.0675
1202.8	283.881	4695.72	3621.76	691.467	681.799	681.799	681.799	3631.43	-3.47292	-53.2146
1203	283.681	3428.02	1673.39	686.663	683.189	683.189	683.189	1676.86	-6.68789	-87.558
1203.2	283.481	2464.74	975.192	685.258	684.086	684.086	684.086	976.365	-6.70366	-74.4188
1203.4	283.281	1930.52	759.972	684.986	684.619	684.619	684.619	760.34	-5.95525	-58.5089
1203.6	283.081	1686.32	702.128	685.194	685.086	685.086	685.086	702.236	-5.35853	-49.204
1203.8	282.881	1128.64	688.643	685.312	685.283	685.283	685.283	688.673	-2.92836	-21.9981
1204	282.681	935.98	685.97	685.393	685.386	685.386	685.386	685.978	-1.82724	-12.5001
1204.2	282.481	1064.01	685.613	685.527	685.525	685.525	685.525	685.615	-2.5939	-18.9195
1204.4	282.281	663.602	685.586	685.575	685.575	685.575	685.575	685.587	0.190834	1.09924
1204.6	282.081	804.122	685.615	685.613	685.613	685.613	685.613	685.615	-0.934477	-5.92536
1204.8	281.881	549.304	549.304	549.304	549.304	549.304	549.304	549.304	0	0
1205	281.681	565.292	565.292	565.292	565.292	565.292	565.292	565.292	0	0
1205.2	281.481	527.404	527.404	527.404	527.404	527.404	527.404	527.404	0	0
1205.4	281.281	584.068	584.068	584.068	584.068	584.068	584.068	584.068	0	0
1205.6	281.081	479.412	479.412	479.412	479.412	479.412	479.412	479.412	0	0
1205.8	280.881	414.586	414.586	414.586	414.586	414.586	414.586	414.586	0	0
1206	280.681	363.482	363.482	363.482	363.482	363.482	363.482	363.482	0	0
1206.2	280.481	376.7	376.7	376.7	376.7	376.7	376.7	376.7	0	0
1206.4	280.281	360.578	360.578	360.578	360.578	360.578	360.578	360.578	0	0
1206.6	280.081	479.288	479.288	479.288	479.288	479.288	479.288	479.288	0	0
1206.8	279.881	319.924	319.924	319.924	319.924	319.924	319.924	319.924	0	0
1207	279.681	425.644	425.644	425.644	425.644	425.644	425.644	425.644	0	0
1207.2	279.481	305.144	305.144	305.144	305.144	305.144	305.144	305.144	0	0
1207.4	279.281	265.638	265.638	265.638	265.638	265.638	265.638	265.638	0	0
1207.6	279.081	269.622	269.622	269.622	269.622	269.622	269.622	269.622	0	0
1207.8	278.881	198.823	198.823	198.823	198.823	198.823	198.823	198.823	0	0
1208	278.681	429.744	429.744	429.744	429.744	429.744	429.744	429.744	0	0