File: XPS/250418_C-1.3.csv
C1s Scan
	Characteristic Energy eV	1486.68	Acquisition Time s	0.05
KE_C1s Scan	BE_C1s Scan	CPS_C1s Scan	C-C/C-H_1_C1s Scan	C-O_2_C1s Scan	C=O_3_C1s Scan	O-C=O_4_C1s Scan	Background_C1s Scan	Envelope_C1s Scan	Normalised_Residual_C1s Scan	Residual_C1s Scan
1188.93	297.749	3145.04	3145.04	3145.04	3145.04	3145.04	3145.04	3145.04	0	0
1189.13	297.549	3214.82	3214.82	3214.82	3214.82	3214.82	3214.82	3214.82	0	0
1189.33	297.349	2438.3	2438.3	2438.3	2438.3	2438.3	2438.3	2438.3	0	0
1189.53	297.149	2824.14	2824.14	2824.14	2824.14	2824.14	2824.14	2824.14	0	0
1189.73	296.949	2658.76	2658.76	2658.76	2658.76	2658.76	2658.76	2658.76	0	0
1189.93	296.749	2416.96	2416.96	2416.96	2416.96	2416.96	2416.96	2416.96	0	0
1190.13	296.549	2607.28	2607.28	2607.28	2607.28	2607.28	2607.28	2607.28	0	0
1190.33	296.349	2840.9	2840.9	2840.9	2840.9	2840.9	2840.9	2840.9	0	0
1190.53	296.149	2463.56	2463.56	2463.56	2463.56	2463.56	2463.56	2463.56	0	0
1190.73	295.949	2826.54	2826.54	2826.54	2826.54	2826.54	2826.54	2826.54	0	0
1190.93	295.749	2548.36	2548.36	2548.36	2548.36	2548.36	2548.36	2548.36	0	0
1191.13	295.549	2495.16	2495.16	2495.16	2495.16	2495.16	2495.16	2495.16	0	0
1191.33	295.349	2158.9	2158.9	2158.9	2158.9	2158.9	2158.9	2158.9	0	0
1191.53	295.149	2071	2071	2071	2071	2071	2071	2071	0	0
1191.73	294.949	2268.84	2268.84	2268.84	2268.84	2268.84	2268.84	2268.84	0	0
1191.93	294.749	1856.56	1856.56	1856.56	1856.56	1856.56	1856.56	1856.56	0	0
1192.13	294.549	1871.2	1871.2	1871.2	1871.2	1871.2	1871.2	1871.2	0	0
1192.33	294.349	1632.11	1632.11	1632.11	1632.11	1632.11	1632.11	1632.11	0	0
1192.53	294.149	1634.3	1634.3	1634.3	1634.3	1634.3	1634.3	1634.3	0	0
1192.73	293.949	1679.8	1679.8	1679.8	1679.8	1679.8	1679.8	1679.8	0	0
1192.93	293.749	1614.8	1614.8	1614.8	1614.8	1614.8	1614.8	1614.8	0	0
1193.13	293.549	1717.5	1717.5	1717.5	1717.5	1717.5	1717.5	1717.5	0	0
1193.33	293.349	1596.66	1596.66	1596.66	1596.66	1596.66	1596.66	1596.66	0	0
1193.53	293.149	1383.09	1383.09	1383.09	1383.09	1383.09	1383.09	1383.09	0	0
1193.73	292.949	1155.97	1155.97	1155.97	1155.97	1155.97	1155.97	1155.97	0	0
1193.93	292.749	1012.25	1012.25	1012.25	1012.25	1012.25	1012.25	1012.25	0	0
1194.13	292.549	1006.64	1006.64	1006.64	1006.64	1006.64	1006.64	1006.64	0	0
1194.33	292.349	1046.93	1046.93	1046.93	1046.93	1046.94	1046.93	1046.94	0	0
1194.53	292.149	1001.15	1001.15	1001.15	1001.15	1001.18	1001.15	1001.19	0	0
1194.73	291.949	1105.27	1105.27	1105.27	1105.27	1105.39	1105.27	1105.39	0	0
1194.93	291.749	1440.71	1440.71	1440.71	1440.71	1441.09	1440.71	1441.09	0	0
1195.13	291.549	816.38	816.38	816.38	816.398	817.493	816.38	817.511	0	0
1195.33	291.349	917.256	917.256	917.256	917.323	920.283	917.256	920.35	0	0
1195.53	291.149	1051.84	1051.84	1051.84	1052.07	1059.54	1051.84	1059.77	0	0
1195.73	290.949	1304.7	1158.18	1158.18	1158.91	1176.47	1158.18	1177.2	-0.789306	-6.37507
1195.93	290.749	1040.37	1158.07	1158.07	1160.23	1198.67	1158.07	1200.84	1.11251	8.0238
1196.13	290.549	1327.18	1157.94	1157.94	1163.99	1242.02	1157.94	1248.07	-0.485579	-3.95558
1196.33	290.349	1391.43	1157.74	1157.74	1173.48	1319.97	1157.74	1335.72	-0.333978	-2.7857
1196.53	290.149	1495.1	1157.38	1157.38	1195.71	1447.9	1157.38	1486.24	-0.051233	-0.442966
1196.73	289.949	1944.57	1156.9	1156.91	1244.09	1637.91	1156.9	1725.11	-1.11282	-10.9728
1196.93	289.749	2306.2	1156.04	1156.1	1341.18	1886.99	1156.04	2072.18	-1.08965	-11.701
1197.13	289.549	2380.32	1154.88	1155.06	1521.29	2166.04	1154.88	2532.63	0.698078	7.61564
1197.33	289.349	2943.16	1153.22	1153.83	1827.39	2414.3	1153.22	3089.1	0.601514	7.29689
1197.53	289.149	3712.58	1150.91	1152.87	2299.61	2556.33	1150.91	3706.99	-0.0205184	-0.279555
1197.73	288.949	4271.2	1147.95	1153.77	2949.3	2541.16	1147.95	4348.34	0.263916	3.85678
1197.93	288.749	4586.52	1144.56	1160.67	3724.36	2372.87	1144.56	4968.78	1.26211	19.1128
1198.13	288.549	5548.66	1140.48	1182.2	4482.72	2109.67	1140.48	5493.63	-0.165197	-2.75158
1198.33	288.349	5565.42	1136.03	1236.94	5016.65	1826.4	1136.03	5807.94	0.726903	12.1258
1198.53	288.149	5810.64	1131.22	1359.35	5143.47	1579.36	1131.21	5819.76	0.0267536	0.456014
1198.73	287.949	5084.18	1127.48	1608.83	4814.29	1394.99	1127.47	5563.19	1.50217	23.9505
1198.93	287.749	5205.96	1123.5	2069.93	4147.49	1270.99	1123.41	5241.67	0.110662	1.78539
1199.13	287.549	4966.4	1120.23	2849.72	3351.38	1195.5	1119.77	5157.54	0.606464	9.55676
1199.33	287.349	5989.4	1117.62	4041.34	2611.28	1151.47	1115.33	5575.73	-1.19522	-20.6836
1199.53	287.149	7104.7	1120.15	5663.04	2029.41	1126.16	1110.02	6608.7	-1.31581	-24.8
1199.73	286.949	9051.42	1143.23	7567.12	1624.47	1109.88	1103.17	8135.2	-2.15342	-45.8112
1199.93	286.749	9106.96	1237.3	9389.88	1369.82	1097.97	1095.35	9808.92	1.64478	35.0978
1200.13	286.549	10403.2	1536.98	10619.3	1220.62	1087.21	1086.26	11205.3	1.75851	40.1064
1200.33	286.349	11822.2	2357.83	10826.1	1137.57	1076.44	1076.11	12169.6	0.7143	17.3666
1200.53	286.149	12587.2	4323.85	9932.31	1091.47	1065.37	1065.27	13217.2	1.25563	31.5001
1200.73	285.949	15769.6	8430.41	8251.83	1062.2	1051.77	1051.74	15641	-0.229082	-6.43261
1200.93	285.749	22251	15810.1	6298.4	1036.93	1033.04	1033.03	21079.4	-1.75627	-58.5804
1201.13	285.549	29335.4	26877.9	4508.76	1008.84	1007.49	1007.49	30380.5	1.36447	52.257
1201.33	285.349	41383.6	39906.2	3106.21	971.781	971.34	971.34	42041.5	0.723153	32.895
1201.53	285.149	51307.6	50322.5	2127.92	925.109	924.975	924.975	51525.5	0.215152	10.8974
1201.73	284.949	53904.8	52882.8	1502.64	874.163	874.125	874.125	53511.3	-0.37894	-19.6729
1201.93	284.749	47034.2	46090.8	1134.34	828.176	828.166	828.166	46397	-0.657014	-31.8615
1202.13	284.549	33758.4	33686.5	931.663	792.767	792.765	792.765	33825.4	0.0815565	3.35069
1202.33	284.349	19474.6	21106.3	830.204	771.216	771.216	771.216	21165.3	2.7091	84.5365
1202.53	284.149	12167	11655.9	782.116	758.773	758.773	758.773	11679.3	-0.988607	-24.3837
1202.73	283.949	5821.32	5888.55	761.506	752.841	752.841	752.841	5897.21	0.22242	3.79463
1202.93	283.749	3498.9	2898.27	752.583	749.59	749.59	749.59	2901.27	-2.25919	-29.8816
1203.13	283.549	2613.4	1549.94	748.579	747.608	747.608	747.608	1550.91	-4.64735	-53.1243
1203.33	283.349	1868.25	1014.51	746.689	746.396	746.396	746.396	1014.81	-4.41513	-42.6723
1203.53	283.149	1326.55	825.774	745.584	745.502	745.502	745.502	825.857	-3.07393	-25.0346
1203.73	282.949	1020.14	766.66	745.145	745.124	745.124	745.124	766.682	-1.77444	-12.6729
1203.93	282.749	913.366	749.952	744.781	744.776	744.776	744.776	749.958	-1.20903	-8.17042
1204.13	282.549	1021.92	745.632	744.519	744.518	744.518	744.518	745.633	-1.93255	-13.8141
1204.33	282.349	823.406	744.568	744.354	744.354	744.354	744.354	744.569	-0.614341	-3.94187
1204.53	282.149	908.51	744.252	744.215	744.215	744.215	744.215	744.252	-1.21856	-8.21288
1204.73	281.949	851.264	744.1	744.094	744.094	744.094	744.094	744.1	-0.821304	-5.35822
1204.93	281.749	862.282	743.947	743.946	743.946	743.946	743.946	743.947	-0.9011	-5.91674
1205.13	281.549	564.178	743.831	743.831	743.831	743.831	743.831	743.831	1.69127	8.98266
1205.33	281.349	804.868	743.751	743.751	743.751	743.751	743.751	743.751	-0.481711	-3.05586
1205.53	281.149	799.468	799.468	799.468	799.468	799.468	799.468	799.468	0	0
1205.73	280.949	525.74	525.74	525.74	525.74	525.74	525.74	525.74	0	0
1205.93	280.749	652.416	652.416	652.416	652.416	652.416	652.416	652.416	0	0
1206.13	280.549	458.192	458.192	458.192	458.192	458.192	458.192	458.192	0	0
1206.33	280.349	544.4	544.4	544.4	544.4	544.4	544.4	544.4	0	0
1206.53	280.149	452.232	452.232	452.232	452.232	452.232	452.232	452.232	0	0
1206.73	279.949	464.964	464.964	464.964	464.964	464.964	464.964	464.964	0	0
1206.93	279.749	489.648	489.648	489.648	489.648	489.648	489.648	489.648	0	0
1207.13	279.549	609.836	609.836	609.836	609.836	609.836	609.836	609.836	0	0
1207.33	279.349	372.142	372.142	372.142	372.142	372.142	372.142	372.142	0	0
1207.53	279.149	466.44	466.44	466.44	466.44	466.44	466.44	466.44	0	0
1207.73	278.949	422.728	422.728	422.728	422.728	422.728	422.728	422.728	0	0
1207.93	278.749	501.444	501.444	501.444	501.444	501.444	501.444	501.444	0	0