File: XPS/250418_C-1.2.csv
C1s Scan
	Characteristic Energy eV	1486.68	Acquisition Time s	0.05
KE_C1s Scan	BE_C1s Scan	CPS_C1s Scan	C-C/C-H_1_C1s Scan	C-O_2_C1s Scan	C=O_3_C1s Scan	O-C=O_4_C1s Scan	Background_C1s Scan	Envelope_C1s Scan	Normalised_Residual_C1s Scan	Residual_C1s Scan
1188.9	297.781	3010.88	3010.88	3010.88	3010.88	3010.88	3010.88	3010.88	0	0
1189.1	297.581	2992.04	2992.04	2992.04	2992.04	2992.04	2992.04	2992.04	0	0
1189.3	297.381	2930.44	2930.44	2930.44	2930.44	2930.44	2930.44	2930.44	0	0
1189.5	297.181	2668.08	2668.08	2668.08	2668.08	2668.08	2668.08	2668.08	0	0
1189.7	296.981	2242.04	2242.04	2242.04	2242.04	2242.04	2242.04	2242.04	0	0
1189.9	296.781	2631.56	2631.56	2631.56	2631.56	2631.56	2631.56	2631.56	0	0
1190.1	296.581	2533.12	2533.12	2533.12	2533.12	2533.12	2533.12	2533.12	0	0
1190.3	296.381	2534.5	2534.5	2534.5	2534.5	2534.5	2534.5	2534.5	0	0
1190.5	296.181	2091.6	2091.6	2091.6	2091.6	2091.6	2091.6	2091.6	0	0
1190.7	295.981	2531.04	2531.04	2531.04	2531.04	2531.04	2531.04	2531.04	0	0
1190.9	295.781	2164.94	2164.94	2164.94	2164.94	2164.94	2164.94	2164.94	0	0
1191.1	295.581	2116.56	2116.56	2116.56	2116.56	2116.56	2116.56	2116.56	0	0
1191.3	295.381	1935.04	1935.04	1935.04	1935.04	1935.04	1935.04	1935.04	0	0
1191.5	295.181	2265.2	2265.2	2265.2	2265.2	2265.2	2265.2	2265.2	0	0
1191.7	294.981	1860.18	1860.18	1860.18	1860.18	1860.18	1860.18	1860.18	0	0
1191.9	294.781	1433.83	1433.83	1433.83	1433.83	1433.83	1433.83	1433.83	0	0
1192.1	294.581	2029.5	2029.5	2029.5	2029.5	2029.5	2029.5	2029.5	0	0
1192.3	294.381	1601.29	1601.29	1601.29	1601.29	1601.29	1601.29	1601.29	0	0
1192.5	294.181	1352.4	1352.4	1352.4	1352.4	1352.4	1352.4	1352.4	0	0
1192.7	293.981	1370.05	1370.05	1370.05	1370.05	1370.05	1370.05	1370.05	0	0
1192.9	293.781	1558.33	1558.33	1558.33	1558.33	1558.33	1558.33	1558.33	0	0
1193.1	293.581	1183.14	1183.14	1183.14	1183.14	1183.14	1183.14	1183.14	0	0
1193.3	293.381	1406.41	1406.41	1406.41	1406.41	1406.41	1406.41	1406.41	0	0
1193.5	293.181	1200.46	1200.46	1200.46	1200.46	1200.46	1200.46	1200.46	0	0
1193.7	292.981	1058.69	1058.69	1058.69	1058.69	1058.69	1058.69	1058.69	0	0
1193.9	292.781	877.69	877.69	877.69	877.69	877.69	877.69	877.69	0	0
1194.1	292.581	870.116	870.116	870.116	870.116	870.117	870.116	870.117	0	0
1194.3	292.381	1113.23	1113.23	1113.23	1113.23	1113.23	1113.23	1113.23	0	0
1194.5	292.181	875.868	875.868	875.868	875.868	875.878	875.868	875.878	0	0
1194.7	291.981	555.852	555.852	555.852	555.852	555.888	555.852	555.888	0	0
1194.9	291.781	749.77	749.77	749.77	749.77	749.89	749.77	749.89	0	0
1195.1	291.581	661.478	661.478	661.478	661.478	661.852	661.478	661.853	0	0
1195.3	291.381	586.712	586.712	586.712	586.713	587.809	586.712	587.811	0	0
1195.5	291.181	911.01	911.01	911.01	911.016	914.004	911.01	914.009	0	0
1195.7	290.981	569.648	791.426	791.426	791.448	799.085	791.426	799.107	2.14974	11.473
1195.9	290.781	798.27	791.374	791.374	791.451	809.636	791.374	809.712	0.0905557	0.572105
1196.1	290.581	814.424	791.348	791.348	791.601	832.11	791.348	832.362	0.140551	0.8969
1196.3	290.381	964.032	791.305	791.305	792.08	876.066	791.305	876.842	-0.627921	-4.35949
1196.5	290.181	873.326	791.265	791.266	793.496	955.662	791.265	957.893	0.63988	4.22836
1196.7	289.981	835.436	791.219	791.222	797.213	1087.09	791.219	1093.09	1.99326	12.8826
1196.9	289.781	1277.43	791.058	791.067	806.112	1283.66	791.058	1298.72	0.133251	1.06493
1197.1	289.581	1674.92	790.755	790.792	826.081	1543.85	790.755	1579.21	-0.522921	-4.7854
1197.3	289.381	1907.68	790.342	790.478	867.793	1839.07	790.342	1916.65	0.0459525	0.448793
1197.5	289.181	2261.46	789.816	790.276	948.149	2107.32	789.816	2266.12	0.0218913	0.232782
1197.7	288.981	2548.04	789.223	790.696	1090.69	2269.07	789.223	2572.01	0.106184	1.19852
1197.9	288.781	2811.96	788.486	792.85	1320.87	2267.1	788.486	2803.85	-0.0341942	-0.405455
1198.1	288.581	3048.82	787.651	799.831	1655.92	2101.55	787.651	2982	-0.270596	-3.34097
1198.3	288.381	2861.5	786.829	818.372	2084.73	1831.03	786.829	3160.47	1.24972	14.9484
1198.5	288.181	3810.28	785.769	862.575	2548.81	1534.5	785.768	3374.35	-1.57915	-21.7965
1198.7	287.981	3578.66	784.736	958.593	2940.19	1273.75	784.734	3603.08	0.0912642	1.2208
1198.9	287.781	3100.84	783.739	1152.56	3135.51	1077.15	783.72	3797.8	2.79867	34.8479
1199.1	287.581	3520.24	782.802	1509.67	3064.34	945.463	782.672	3954.26	1.63573	21.7011
1199.3	287.381	4051.92	782.204	2116.63	2751.55	865.311	781.426	4171.41	0.419752	5.97458
1199.5	287.181	5028.04	784.066	3046.25	2304.56	820.172	779.901	4615.35	-1.3014	-20.6345
1199.7	286.981	5429.42	797.682	4321.7	1845.27	796.191	778.153	5426.39	-0.00920641	-0.151688
1199.9	286.781	6795.66	857.004	5831.26	1457.61	783.435	775.885	6601.65	-0.526245	-9.70038
1200.1	286.581	7753.48	1070.55	7295.15	1174.54	776.452	773.5	7996.2	0.616375	12.1361
1200.3	286.381	8835.34	1731.04	8311.33	988.758	771.627	770.547	9491.11	1.56	32.7885
1200.5	286.181	11756.7	3508.11	8524.07	877.395	767.229	766.861	11376.2	-0.784701	-19.0253
1200.7	285.981	15307.7	7628.2	7859.85	814.038	762.072	761.954	14778.3	-0.956834	-26.4714
1200.9	285.781	21706.6	15793.7	6549.86	777.617	754.683	754.648	21611.9	-0.143766	-4.73628
1201.1	285.581	34062.6	29121.5	5002.8	752.636	743.214	743.204	33390.5	-0.814274	-33.6043
1201.3	285.381	47397.8	46090.2	3572.75	730.55	726.918	726.915	48939.6	1.58359	77.0915
1201.5	285.181	61711.6	60682	2447.48	706.501	705.199	705.199	62425.6	0.642683	35.6998
1201.7	284.981	67172.2	64943.6	1666.24	680.929	680.49	680.49	65929.8	-1.07186	-62.1182
1201.9	284.781	56859.8	56169.6	1174.9	658.153	658.016	658.016	56686.6	-0.16244	-8.66126
1202.1	284.581	38754.2	39751.8	894.445	641.765	641.724	641.724	40004.6	1.42029	62.5205
1202.3	284.381	22811	23620.3	746.927	631.882	631.871	631.871	23735.3	1.36847	46.2159
1202.5	284.181	11892.1	12148	675.808	626.784	626.781	626.781	12197	0.625321	15.2481
1202.7	283.981	6511.1	5634.5	643.683	624.208	624.208	624.208	5653.97	-2.37522	-42.8564
1202.9	283.781	3522.44	2526.53	630.079	622.829	622.829	622.829	2533.78	-3.72486	-49.4329
1203.1	283.581	2380.74	1260.87	624.46	621.944	621.944	621.944	1263.38	-5.12059	-55.8678
1203.3	283.381	1753.38	809.892	622.326	621.508	621.508	621.508	810.71	-5.03392	-47.1334
1203.5	283.181	1306.71	670.519	621.461	621.213	621.213	621.213	670.767	-3.93381	-31.7972
1203.7	282.981	1345.42	632.313	621.039	620.969	620.969	620.969	632.383	-4.34679	-35.6519
1203.9	282.781	1147.02	623.081	620.788	620.77	620.77	620.77	623.1	-3.4591	-26.1959
1204.1	282.581	846.766	621.082	620.672	620.668	620.668	620.668	621.087	-1.73418	-11.284
1204.3	282.381	900.904	620.646	620.581	620.58	620.58	620.58	620.647	-2.08787	-14.0129
1204.5	282.181	735.076	620.511	620.502	620.502	620.502	620.502	620.511	-0.944865	-5.72824
1204.7	281.981	723.83	620.438	620.436	620.436	620.436	620.436	620.438	-0.859321	-5.16962
1204.9	281.781	594.844	620.427	620.427	620.427	620.427	620.427	620.427	0.234553	1.27917
1205.1	281.581	556.102	620.388	620.388	620.388	620.388	620.388	620.388	0.609568	3.21429
1205.3	281.381	622.21	622.21	622.21	622.21	622.21	622.21	622.21	0	0
1205.5	281.181	528.26	528.26	528.26	528.26	528.26	528.26	528.26	0	0
1205.7	280.981	447.318	447.318	447.318	447.318	447.318	447.318	447.318	0	0
1205.9	280.781	294.202	294.202	294.202	294.202	294.202	294.202	294.202	0	0
1206.1	280.581	488.714	488.714	488.714	488.714	488.714	488.714	488.714	0	0
1206.3	280.381	313.368	313.368	313.368	313.368	313.368	313.368	313.368	0	0
1206.5	280.181	453.236	453.236	453.236	453.236	453.236	453.236	453.236	0	0
1206.7	279.981	314.392	314.392	314.392	314.392	314.392	314.392	314.392	0	0
1206.9	279.781	319.53	319.53	319.53	319.53	319.53	319.53	319.53	0	0
1207.1	279.581	356.824	356.824	356.824	356.824	356.824	356.824	356.824	0	0
1207.3	279.381	297.198	297.198	297.198	297.198	297.198	297.198	297.198	0	0
1207.5	279.181	364.974	364.974	364.974	364.974	364.974	364.974	364.974	0	0
1207.7	278.981	198.638	198.638	198.638	198.638	198.638	198.638	198.638	0	0
1207.9	278.781	331.902	331.902	331.902	331.902	331.902	331.902	331.902	0	0