File: XPS/XPS/241019_C-3.3.csv
C1s Scan
	Characteristic Energy eV	1486.68	Acquisition Time s	0.05
KE_C1s Scan	BE_C1s Scan	CPS_C1s Scan	C-C/C-H_1_C1s Scan	C-O_2_C1s Scan	C=O_3_C1s Scan	O-C=O_4_C1s Scan	Background_C1s Scan	Envelope_C1s Scan	Normalised_Residual_C1s Scan	Residual_C1s Scan
1188.87	297.815	1550.5	1550.5	1550.5	1550.5	1550.5	1550.5	1550.5	0	0
1189.07	297.615	1331.18	1331.18	1331.18	1331.18	1331.18	1331.18	1331.18	0	0
1189.27	297.415	1550.07	1550.07	1550.07	1550.07	1550.07	1550.07	1550.07	0	0
1189.47	297.215	1538.77	1538.77	1538.77	1538.77	1538.77	1538.77	1538.77	0	0
1189.67	297.015	1579.18	1579.18	1579.18	1579.18	1579.18	1579.18	1579.18	0	0
1189.87	296.815	1501.23	1501.23	1501.23	1501.23	1501.23	1501.23	1501.23	0	0
1190.07	296.615	1010.11	1010.11	1010.11	1010.11	1010.11	1010.11	1010.11	0	0
1190.27	296.415	1295.25	1295.25	1295.25	1295.25	1295.25	1295.25	1295.25	0	0
1190.47	296.215	1422.12	1422.12	1422.12	1422.12	1422.12	1422.12	1422.12	0	0
1190.67	296.015	1296.63	1296.63	1296.63	1296.63	1296.63	1296.63	1296.63	0	0
1190.87	295.815	1249.71	1249.71	1249.71	1249.71	1249.71	1249.71	1249.71	0	0
1191.07	295.615	1215.33	1215.33	1215.33	1215.33	1215.33	1215.33	1215.33	0	0
1191.27	295.415	983.892	983.892	983.892	983.892	983.892	983.892	983.892	0	0
1191.47	295.215	921.564	921.564	921.564	921.564	921.564	921.564	921.564	0	0
1191.67	295.015	885.474	885.474	885.474	885.474	885.474	885.474	885.474	0	0
1191.87	294.815	895.082	895.082	895.082	895.082	895.082	895.082	895.082	0	0
1192.07	294.615	1021.75	1021.75	1021.75	1021.75	1021.75	1021.75	1021.75	0	0
1192.27	294.415	866.248	866.248	866.248	866.248	866.248	866.248	866.248	0	0
1192.47	294.215	815.2	815.2	815.2	815.2	815.2	815.2	815.2	0	0
1192.67	294.015	533.096	533.096	533.096	533.096	533.096	533.096	533.096	0	0
1192.87	293.815	675.396	675.396	675.396	675.396	675.396	675.396	675.396	0	0
1193.07	293.615	647.942	647.942	647.942	647.942	647.942	647.942	647.942	0	0
1193.27	293.415	458.338	458.338	458.338	458.338	458.338	458.338	458.338	0	0
1193.47	293.215	745.218	745.218	745.218	745.218	745.218	745.218	745.218	0	0
1193.67	293.015	503.638	503.638	503.638	503.638	503.638	503.638	503.638	0	0
1193.87	292.815	328.172	328.172	328.172	328.172	328.172	328.172	328.172	0	0
1194.07	292.615	395.218	395.218	395.218	395.218	395.219	395.218	395.219	0	0
1194.27	292.415	255.182	255.182	255.182	255.182	255.185	255.182	255.185	0	0
1194.47	292.215	243.966	243.966	243.966	243.966	243.978	243.966	243.978	0	0
1194.67	292.015	243.732	243.732	243.732	243.732	243.773	243.732	243.773	0	0
1194.87	291.815	265.36	265.36	265.36	265.36	265.488	265.36	265.488	0	0
1195.07	291.615	287.568	287.568	287.568	287.568	287.941	287.568	287.941	0	0
1195.27	291.415	303.622	303.622	303.622	303.623	304.636	303.622	304.637	0	0
1195.47	291.215	444.162	444.162	444.162	444.168	446.739	444.162	446.745	0	0
1195.67	291.015	185.553	208.974	208.974	208.994	215.097	208.974	215.116	0.485294	1.47817
1195.87	290.815	181.986	208.993	208.993	209.059	222.581	208.993	222.648	0.673994	2.03311
1196.07	290.615	244.308	209.004	209.004	209.21	237.138	209.004	237.344	-0.0996266	-0.3482
1196.27	290.415	352.746	209.038	209.039	209.643	263.308	209.038	263.913	-1.05762	-4.44165
1196.47	290.215	387.108	209.099	209.099	210.744	306.272	209.099	307.917	-0.900002	-3.95954
1196.67	290.015	403.35	209.15	209.15	213.36	369.996	209.15	374.207	-0.324476	-1.45717
1196.87	289.815	432.448	209.228	209.23	219.244	453.602	209.228	463.621	0.335195	1.55865
1197.07	289.615	751.402	209.421	209.431	231.772	547.394	209.421	569.756	-1.48175	-9.08232
1197.27	289.415	533.992	209.56	209.599	255.951	630.95	209.56	677.379	1.38749	7.16937
1197.47	289.215	942.572	209.834	209.968	299.753	679.328	209.834	769.38	-1.2614	-8.65958
1197.67	289.015	805.738	210.106	210.541	371.661	675.377	210.106	837.366	0.249152	1.58142
1197.87	288.815	927.528	210.398	211.72	479.075	620.49	210.398	890.489	-0.271943	-1.85194
1198.07	288.615	745.186	210.705	214.447	620.773	534.199	210.705	948.009	1.66138	10.1412
1198.27	288.415	1021.74	211.045	220.98	781.136	441.421	211.045	1021.45	-0.00205352	-0.0146776
1198.47	288.215	1196.99	211.431	236.008	926.355	360.948	211.431	1100.45	-0.623964	-4.82714
1198.67	288.015	1264.58	211.885	268.835	1013.16	301.117	211.885	1159.35	-0.66171	-5.2617
1198.87	287.815	1098.93	212.272	335.259	1011.37	261.486	212.268	1183.58	0.571001	4.2326
1199.07	287.615	1294.07	212.761	460.787	921.27	237.985	212.733	1194.6	-0.618257	-4.97316
1199.27	287.415	1244.2	213.363	678.167	775.254	225.226	213.175	1252.49	0.0525096	0.414161
1199.47	287.215	1298.4	214.771	1022.32	616.009	219.044	213.665	1431.15	0.823759	6.63727
1199.67	287.015	1911.48	220.089	1510.51	476.729	216.632	214.395	1780.78	-0.668476	-6.53515
1199.87	286.815	2560.9	240.933	2116.93	372.499	216.141	215.269	2300.69	-1.14976	-13.0103
1200.07	286.615	2855.86	318.489	2746.57	303.394	216.636	216.319	2936.13	0.335852	4.0133
1200.27	286.415	3512.76	573.555	3241.55	262.543	217.812	217.704	3642.35	0.488923	6.47962
1200.47	286.215	4478.38	1312.01	3441.6	240.905	219.456	219.422	4555.7	0.258371	3.86625
1200.67	286.015	6413.62	3155.82	3273.11	231.498	221.889	221.879	6216.68	-0.549882	-9.84705
1200.87	285.815	10227.2	7090.57	2800.85	229.82	225.805	225.802	9669.64	-1.23286	-27.879
1201.07	285.615	15936.6	14090.3	2182.74	233.582	232.012	232.012	16042.6	0.187716	5.29888
1201.27	285.415	25249	23941.8	1581.29	242.722	242.15	242.149	25281.5	0.0457268	1.62472
1201.47	285.215	34872.6	33810.2	1097.27	256.609	256.413	256.413	34651.3	-0.265039	-11.0672
1201.67	285.015	39596.4	38693.4	759.85	273.36	273.297	273.297	39180	-0.467905	-20.8195
1201.87	284.815	35370.2	35447.7	550.416	289.521	289.502	289.502	35708.7	0.402417	16.9231
1202.07	284.615	26620.4	26219.1	432.815	302.656	302.651	302.651	26349.3	-0.371588	-13.5567
1202.27	284.415	14869.2	16038.8	371.098	310.565	310.564	310.564	16099.4	2.25585	61.5091
1202.47	284.215	7576.22	8373.49	340.818	314.522	314.522	314.522	8399.78	2.11571	41.1782
1202.67	284.015	4291.54	3862.92	327.273	316.607	316.607	316.607	3873.59	-1.42661	-20.8976
1202.87	283.815	2440.54	1676.5	321.821	317.773	317.773	317.773	1680.55	-3.43995	-37.9997
1203.07	283.615	1479.32	774.065	319.833	318.399	318.399	318.399	775.499	-4.0918	-35.1909
1203.27	283.415	1489.95	452.762	319.345	318.87	318.87	318.87	453.237	-6.00561	-51.8355
1203.47	283.215	1058.64	353.993	319.411	319.264	319.264	319.264	354.14	-4.84165	-35.2252
1203.67	283.015	917.562	327.426	319.594	319.551	319.551	319.551	327.468	-4.35601	-29.5047
1203.87	282.815	770.482	321.307	319.741	319.729	319.729	319.729	321.318	-3.61833	-22.4582
1204.07	282.615	615.872	320.142	319.869	319.866	319.866	319.866	320.145	-2.66459	-14.7863
1204.27	282.415	384.024	319.947	319.906	319.905	319.905	319.905	319.948	-0.73114	-3.20379
1204.47	282.215	346.968	319.941	319.936	319.935	319.935	319.935	319.941	-0.324439	-1.35133
1204.67	282.015	480.398	319.994	319.993	319.993	319.993	319.993	319.994	-1.63644	-8.02021
1204.87	281.815	269.92	320.019	320.019	320.019	320.019	320.019	320.019	0.68186	2.50494
1205.07	281.615	266.348	320.033	320.033	320.033	320.033	320.033	320.033	0.735546	2.68423
1205.27	281.415	284.894	320.056	320.056	320.056	320.056	320.056	320.056	0.465814	1.75808
1205.47	281.215	314.77	314.77	314.77	314.77	314.77	314.77	314.77	0	0
1205.67	281.015	99.9626	99.9626	99.9626	99.9626	99.9626	99.9626	99.9626	0	0
1205.87	280.815	147.041	147.041	147.041	147.041	147.041	147.041	147.041	0	0
1206.07	280.615	194.554	194.554	194.554	194.554	194.554	194.554	194.554	0	0
1206.27	280.415	195.556	195.556	195.556	195.556	195.556	195.556	195.556	0	0
1206.47	280.215	320.546	320.546	320.546	320.546	320.546	320.546	320.546	0	0
1206.67	280.015	173.882	173.882	173.882	173.882	173.882	173.882	173.882	0	0
1206.87	279.815	72.2976	72.2976	72.2976	72.2976	72.2976	72.2976	72.2976	0	0
1207.07	279.615	176.777	176.777	176.777	176.777	176.777	176.777	176.777	0	0
1207.27	279.415	100.467	100.467	100.467	100.467	100.467	100.467	100.467	0	0
1207.47	279.215	158.535	158.535	158.535	158.535	158.535	158.535	158.535	0	0
1207.67	279.015	191.931	191.931	191.931	191.931	191.931	191.931	191.931	0	0
1207.87	278.815	176.155	176.155	176.155	176.155	176.155	176.155	176.155	0	0