File: XPS/XPS/241019_195-1.2.csv
C1s Scan
	Characteristic Energy eV	1486.68	Acquisition Time s	0.05
KE_C1s Scan	BE_C1s Scan	CPS_C1s Scan	C-C/C-H_1_C1s Scan	C-O_2_C1s Scan	C=O_3_C1s Scan	O-C=O_4_C1s Scan	Background_C1s Scan	Envelope_C1s Scan	Normalised_Residual_C1s Scan	Residual_C1s Scan
1189.03	297.653	1827.6	1827.6	1827.6	1827.6	1827.6	1827.6	1827.6	0	0
1189.23	297.453	1597.72	1597.72	1597.72	1597.72	1597.72	1597.72	1597.72	0	0
1189.43	297.253	1991.38	1991.38	1991.38	1991.38	1991.38	1991.38	1991.38	0	0
1189.63	297.053	1649.54	1649.54	1649.54	1649.54	1649.54	1649.54	1649.54	0	0
1189.83	296.853	1712.94	1712.94	1712.94	1712.94	1712.94	1712.94	1712.94	0	0
1190.03	296.653	1569.96	1569.96	1569.96	1569.96	1569.96	1569.96	1569.96	0	0
1190.23	296.453	1977.96	1977.96	1977.96	1977.96	1977.96	1977.96	1977.96	0	0
1190.43	296.253	1601.12	1601.12	1601.12	1601.12	1601.12	1601.12	1601.12	0	0
1190.63	296.053	1634.77	1634.77	1634.77	1634.77	1634.77	1634.77	1634.77	0	0
1190.83	295.853	1573.69	1573.69	1573.69	1573.69	1573.69	1573.69	1573.69	0	0
1191.03	295.653	1374.86	1374.86	1374.86	1374.86	1374.86	1374.86	1374.86	0	0
1191.23	295.453	1431.69	1431.69	1431.69	1431.69	1431.69	1431.69	1431.69	0	0
1191.43	295.253	1119.2	1119.2	1119.2	1119.2	1119.2	1119.2	1119.2	0	0
1191.63	295.053	1346.78	1346.78	1346.78	1346.78	1346.78	1346.78	1346.78	0	0
1191.83	294.853	1273.72	1273.72	1273.72	1273.72	1273.72	1273.72	1273.72	0	0
1192.03	294.653	1293.58	1293.58	1293.58	1293.58	1293.58	1293.58	1293.58	0	0
1192.23	294.453	1282.16	1282.16	1282.16	1282.16	1282.16	1282.16	1282.16	0	0
1192.43	294.253	872.598	872.598	872.598	872.598	872.598	872.598	872.598	0	0
1192.63	294.053	1063.21	1063.21	1063.21	1063.21	1063.21	1063.21	1063.21	0	0
1192.83	293.853	807.64	807.64	807.64	807.64	807.64	807.64	807.64	0	0
1193.03	293.653	934.35	934.35	934.35	934.35	934.35	934.35	934.35	0	0
1193.23	293.453	1071.29	1071.29	1071.29	1071.29	1071.29	1071.29	1071.29	0	0
1193.43	293.253	970.476	970.476	970.476	970.476	970.476	970.476	970.476	0	0
1193.63	293.053	742.876	742.876	742.876	742.876	742.876	742.876	742.876	0	0
1193.83	292.853	908.32	908.32	908.32	908.32	908.321	908.32	908.321	0	0
1194.03	292.653	634.272	634.272	634.272	634.272	634.277	634.272	634.277	0	0
1194.23	292.453	809.51	809.51	809.51	809.51	809.528	809.51	809.528	0	0
1194.43	292.253	665.72	665.72	665.72	665.72	665.781	665.72	665.782	0	0
1194.63	292.053	846.538	846.538	846.538	846.539	846.73	846.538	846.732	0	0
1194.83	291.853	882.016	882.016	882.016	882.021	882.581	882.016	882.586	0	0
1195.03	291.653	631.568	631.568	631.568	631.588	633.128	631.568	633.148	0	0
1195.23	291.453	827.958	827.958	827.958	828.029	831.976	827.958	832.048	0	0
1195.43	291.253	727.578	727.578	727.578	727.815	737.312	727.578	737.549	0	0
1195.63	291.053	566.376	723.638	723.638	724.375	745.707	723.638	746.443	1.69187	9.00336
1195.83	290.853	780.402	723.615	723.615	725.75	770.374	723.615	772.509	-0.0631763	-0.394637
1196.03	290.653	802.16	723.581	723.581	729.422	816.503	723.581	822.345	0.159364	1.00927
1196.23	290.453	1088.99	723.508	723.509	738.423	895.45	723.508	910.367	-1.21036	-8.93127
1196.43	290.253	1021.82	723.426	723.432	759.111	1019.43	723.426	1055.12	0.232877	1.66456
1196.63	290.053	1209.93	723.302	723.325	803.448	1194.76	723.302	1274.93	0.417832	3.24988
1196.83	289.853	1768.22	723.038	723.121	891.084	1412.69	723.038	1580.82	-0.996531	-9.37009
1197.03	289.653	2001.5	722.604	722.893	1052.7	1641.66	722.604	1972.04	-0.147228	-1.47283
1197.23	289.453	2659.22	722.077	723.016	1326.27	1827.68	722.077	2432.81	-0.981755	-11.3205
1197.43	289.253	2714.2	721.358	724.215	1748.38	1913.22	721.358	2943.1	0.982457	11.4451
1197.63	289.053	3542.42	720.427	728.599	2335.4	1867.23	720.427	3490.38	-0.195506	-2.60193
1197.83	288.853	4032.66	719.34	741.144	3048.15	1706.89	719.34	4057.5	0.0874816	1.24222
1198.03	288.653	4608.84	718.049	772.834	3772.73	1483.4	718.049	4592.86	-0.0526211	-0.798805
1198.23	288.453	4868.34	716.684	845.363	4328.27	1255.42	716.684	4995.69	0.408117	6.36736
1198.43	288.253	4854.4	715.16	997.979	4539.84	1062.49	715.156	5170	1.01287	15.78
1198.63	288.053	5659.58	713.599	1296.72	4326.94	920.517	713.58	5117.03	-1.61262	-27.1275
1198.83	287.853	5301.32	712.082	1832.85	3769.51	826.338	711.988	5004.82	-0.910582	-14.825
1199.03	287.653	4683.52	711.035	2720.27	3042.58	769.52	710.59	5111.64	1.39881	21.4058
1199.23	287.453	5351.16	710.927	4051.74	2326.83	737.415	709.018	5699.86	1.06589	17.4349
1199.43	287.253	6800.62	714.44	5833.58	1736.28	719.808	707.039	6882.99	0.223344	4.11844
1199.63	287.053	8354	730.728	7904.08	1310.14	709.901	704.498	8541.36	0.458359	9.36782
1199.83	286.853	11010.3	785.404	9871.94	1032.23	703.353	701.217	10289.3	-1.53649	-36.0508
1200.03	286.653	11802.2	944.197	11203.4	866.027	698.287	697.496	11619.4	-0.376203	-9.13878
1200.23	286.453	11724.9	1348.94	11451.7	774.096	693.962	693.687	12187.6	0.955585	23.1371
1200.43	286.253	11574.8	2274.33	10533.2	725.753	690.023	689.934	12153.5	1.20271	28.9335
1200.63	286.053	12466.7	4148.1	8757.5	700.824	685.881	685.854	12234.8	-0.464597	-11.5995
1200.83	285.853	13620.6	7509.1	6664.37	687.408	681.549	681.541	13497.8	-0.235279	-6.13997
1201.03	285.653	16407.6	12697.6	4719.51	678.477	676.335	676.333	16742.9	0.58545	16.7686
1201.23	285.453	22303	19367.6	3183.47	670.139	669.399	669.399	21882.4	-0.629702	-21.0282
1201.43	285.253	26141.4	25952.6	2106.91	661.23	660.992	660.992	27398.8	1.73895	62.8692
1201.63	285.053	31532.2	29943.8	1425.14	650.859	650.787	650.787	30718.2	-1.02499	-40.6988
1201.83	284.853	30457.8	29450.4	1027.39	640.377	640.357	640.357	29837.5	-0.794805	-31.0166
1202.03	284.653	24321	24693.5	812.14	631.629	631.623	631.623	24874	0.79292	27.6506
1202.23	284.453	17188.7	17892.7	704.343	625.19	625.189	625.189	17971.8	1.33564	39.1557
1202.43	284.253	11779.9	11433.7	653.315	620.899	620.898	620.898	11466.1	-0.646335	-15.686
1202.63	284.053	5980.64	6609.74	631.086	618.636	618.636	618.636	6622.18	1.85498	32.0772
1202.83	283.853	4670.76	3593.77	621.668	617.179	617.179	617.179	3598.26	-3.50905	-53.6251
1203.03	283.653	2504.94	1947.92	617.942	616.434	616.434	616.434	1949.43	-2.48186	-27.7754
1203.23	283.453	1753.9	1157.3	616.513	616.034	616.034	616.034	1157.78	-3.18287	-29.8062
1203.43	283.253	1618.82	814.906	615.92	615.778	615.778	615.778	815.048	-4.46702	-40.1885
1203.63	283.053	1269.49	682.507	615.619	615.58	615.58	615.58	682.546	-3.68357	-29.3474
1203.83	282.853	834.752	635.807	615.472	615.462	615.462	615.462	635.817	-1.53963	-9.94673
1204.03	282.653	961.296	621.011	615.349	615.347	615.347	615.347	621.014	-2.45412	-17.0141
1204.23	282.453	878.606	616.721	615.299	615.299	615.299	615.299	616.721	-1.97559	-13.0942
1204.43	282.253	654.134	615.619	615.291	615.291	615.291	615.291	615.619	-0.336731	-1.92575
1204.63	282.053	643.586	615.343	615.276	615.276	615.276	615.276	615.343	-0.248935	-1.41213
1204.83	281.853	673.934	615.241	615.228	615.228	615.228	615.228	615.241	-0.505548	-2.93465
1205.03	281.653	484.126	615.191	615.189	615.189	615.189	615.189	615.191	1.33197	6.55327
1205.23	281.453	504.492	615.155	615.155	615.155	615.155	615.155	615.155	1.10169	5.53314
1205.43	281.253	650.444	615.123	615.123	615.123	615.123	615.123	615.123	-0.30968	-1.76605
1205.63	281.053	624.308	624.308	624.308	624.308	624.308	624.308	624.308	0	0
1205.83	280.853	474.29	474.29	474.29	474.29	474.29	474.29	474.29	0	0
1206.03	280.653	391.858	391.858	391.858	391.858	391.858	391.858	391.858	0	0
1206.23	280.453	506.746	506.746	506.746	506.746	506.746	506.746	506.746	0	0
1206.43	280.253	547.288	547.288	547.288	547.288	547.288	547.288	547.288	0	0
1206.63	280.053	548.388	548.388	548.388	548.388	548.388	548.388	548.388	0	0
1206.83	279.853	418.71	418.71	418.71	418.71	418.71	418.71	418.71	0	0
1207.03	279.653	457.848	457.848	457.848	457.848	457.848	457.848	457.848	0	0
1207.23	279.453	436.534	436.534	436.534	436.534	436.534	436.534	436.534	0	0
1207.43	279.253	354.64	354.64	354.64	354.64	354.64	354.64	354.64	0	0
1207.63	279.053	309.05	309.05	309.05	309.05	309.05	309.05	309.05	0	0
1207.83	278.853	392.218	392.218	392.218	392.218	392.218	392.218	392.218	0	0
1208.03	278.653	301.918	301.918	301.918	301.918	301.918	301.918	301.918	0	0