File: XPS/XPS/241019_C-3.1.csv
C1s Scan
	Characteristic Energy eV	1486.68	Acquisition Time s	0.05
KE_C1s Scan	BE_C1s Scan	CPS_C1s Scan	C-C/C-H_1_C1s Scan	C-O_2_C1s Scan	C=O_3_C1s Scan	O-C=O_4_C1s Scan	Background_C1s Scan	Envelope_C1s Scan	Normalised_Residual_C1s Scan	Residual_C1s Scan
1188.94	297.739	459.914	459.914	459.914	459.914	459.914	459.914	459.914	0	0
1189.14	297.539	475.504	475.504	475.504	475.504	475.504	475.504	475.504	0	0
1189.34	297.339	473.77	473.77	473.77	473.77	473.77	473.77	473.77	0	0
1189.54	297.139	409.896	409.896	409.896	409.896	409.896	409.896	409.896	0	0
1189.74	296.939	511.28	511.28	511.28	511.28	511.28	511.28	511.28	0	0
1189.94	296.739	408.62	408.62	408.62	408.62	408.62	408.62	408.62	0	0
1190.14	296.539	272.64	272.64	272.64	272.64	272.64	272.64	272.64	0	0
1190.34	296.339	401.532	401.532	401.532	401.532	401.532	401.532	401.532	0	0
1190.54	296.139	405.63	405.63	405.63	405.63	405.63	405.63	405.63	0	0
1190.74	295.939	338.468	338.468	338.468	338.468	338.468	338.468	338.468	0	0
1190.94	295.739	357.408	357.408	357.408	357.408	357.408	357.408	357.408	0	0
1191.14	295.539	434.508	434.508	434.508	434.508	434.508	434.508	434.508	0	0
1191.34	295.339	225.878	225.878	225.878	225.878	225.878	225.878	225.878	0	0
1191.54	295.139	459.756	459.756	459.756	459.756	459.756	459.756	459.756	0	0
1191.74	294.939	303.234	303.234	303.234	303.234	303.234	303.234	303.234	0	0
1191.94	294.739	180.136	180.136	180.136	180.136	180.136	180.136	180.136	0	0
1192.14	294.539	260.64	260.64	260.64	260.64	260.64	260.64	260.64	0	0
1192.34	294.339	318.822	318.822	318.822	318.822	318.822	318.822	318.822	0	0
1192.54	294.139	310.208	310.208	310.208	310.208	310.208	310.208	310.208	0	0
1192.74	293.939	222.802	222.802	222.802	222.802	222.802	222.802	222.802	0	0
1192.94	293.739	124.56	124.56	124.56	124.56	124.56	124.56	124.56	0	0
1193.14	293.539	172.378	172.378	172.378	172.378	172.378	172.378	172.378	0	0
1193.34	293.339	266.1	266.1	266.1	266.1	266.1	266.1	266.1	0	0
1193.54	293.139	135.665	135.665	135.665	135.665	135.665	135.665	135.665	0	0
1193.74	292.939	93.028	93.028	93.028	93.028	93.028	93.028	93.028	0	0
1193.94	292.739	80.7072	80.7072	80.7072	80.7072	80.7072	80.7072	80.7072	0	0
1194.14	292.539	119.954	119.954	119.954	119.954	119.954	119.954	119.954	0	0
1194.34	292.339	40.6066	40.6066	40.6066	40.6066	40.6067	40.6066	40.6067	0	0
1194.54	292.139	72.6858	72.6858	72.6858	72.6858	72.6861	72.6858	72.6861	0	0
1194.74	291.939	116.367	116.367	116.367	116.367	116.369	116.367	116.369	0	0
1194.94	291.739	90.6098	90.6098	90.6098	90.6098	90.6159	90.6098	90.6159	0	0
1195.14	291.539	89.1336	89.1336	89.1336	89.1336	89.1559	89.1336	89.1559	0	0
1195.34	291.339	70.3014	70.3014	70.3014	70.3014	70.3773	70.3014	70.3774	0	0
1195.54	291.139	98.3254	98.3254	98.3254	98.3255	98.5636	98.3254	98.5638	0	0
1195.74	290.939	103.346	79.6827	79.6827	79.6833	80.3724	79.6827	80.3731	-0.50531	-1.14866
1195.94	290.739	33.0504	79.7026	79.7026	79.7053	81.5457	79.7026	81.5483	1.88634	2.4249
1196.14	290.539	62.7838	79.7152	79.7152	79.7257	84.2587	79.7152	84.2692	0.606323	1.07427
1196.34	290.339	85.4286	79.7345	79.7345	79.7728	90.0579	79.7345	90.0962	0.112921	0.233379
1196.54	290.139	158.692	79.7566	79.7566	79.8856	101.333	79.7566	101.462	-1.01586	-2.86152
1196.74	289.939	127.833	79.7666	79.7666	80.1674	121.105	79.7666	121.506	-0.125135	-0.316363
1196.94	289.739	172.142	79.7902	79.7902	80.9396	151.983	79.7902	153.133	-0.323974	-0.950472
1197.14	289.539	69.0538	79.8105	79.811	82.8532	193.778	79.8105	196.821	3.43803	6.38836
1197.34	289.339	207.802	79.8517	79.8539	87.2824	240.699	79.8517	248.132	0.625591	2.01651
1197.54	289.139	351.602	79.9538	79.9631	96.6768	280.414	79.9538	297.146	-0.649386	-2.72279
1197.74	288.939	496.816	80.0651	80.102	114.675	298.36	80.0651	333.007	-1.64334	-8.19047
1197.94	288.739	411.504	80.1703	80.3052	145.796	286.89	80.1703	352.65	-0.64874	-2.94268
1198.14	288.539	332.666	80.2647	80.7194	193.598	251.025	80.2647	364.814	0.394124	1.60739
1198.34	288.339	438.316	80.366	81.7808	257.087	204.593	80.3659	382.73	-0.59369	-2.77932
1198.54	288.139	362.24	80.4757	84.5381	326.481	161.051	80.4752	411.12	0.574274	2.44401
1198.74	287.939	413.326	80.6124	91.3766	382.568	127.746	80.6093	440.475	0.298599	1.35744
1198.94	287.739	433.224	80.778	107.086	404.287	105.853	80.76	455.724	0.241718	1.125
1199.14	287.539	459.046	81.0001	140.222	382.29	93.1382	80.9058	453.933	-0.05336	-0.25564
1199.34	287.339	530.752	81.5174	203.981	326.156	86.5539	81.0724	454.991	-0.735334	-3.78805
1199.54	287.139	392.526	83.0772	314.54	256.94	83.4542	81.1911	494.439	1.15021	5.09563
1199.74	286.939	489.104	88.5296	484.879	193.866	82.1993	81.3375	605.461	1.17646	5.81783
1199.94	286.739	866.944	106.356	711.842	146.719	81.959	81.6561	801.908	-0.493906	-3.25181
1200.14	286.539	1109.7	158.598	960.678	116.252	82.0841	81.9859	1071.65	-0.255408	-1.90249
1200.34	286.339	1693.1	296.934	1162.88	99.0157	82.5097	82.4803	1393.9	-1.62595	-14.96
1200.54	286.139	1697.8	622.669	1242.64	90.3663	83.0364	83.0283	1789.63	0.498354	4.59162
1200.74	285.939	2217.6	1301.26	1165.93	86.7784	83.7794	83.7774	2386.42	0.801597	8.44079
1200.94	285.739	3747.84	2534.53	966.529	86.1575	85.0257	85.0252	3417.17	-1.20778	-16.5334
1201.14	285.539	4745.54	4441.83	719.873	87.1093	86.7152	86.7151	5075.39	1.07067	16.4923
1201.34	285.339	6970.62	6830.82	495.179	89.3016	89.1749	89.1749	7236.95	0.713302	13.3166
1201.54	285.139	9206.8	9016.23	327.473	92.4412	92.4036	92.4036	9251.33	0.103778	2.22661
1201.74	284.939	10424.4	10037.5	220.267	96.3175	96.3072	96.3072	10161.4	-0.575979	-13.1498
1201.94	284.739	8984.06	9349.4	159.648	99.7608	99.7582	99.7582	9409.29	1.00316	21.2614
1202.14	284.539	7993.62	7325.35	129.37	102.762	102.761	102.761	7351.96	-1.60478	-32.0828
1202.34	284.339	5192.32	4911.58	115.89	104.996	104.995	104.995	4922.48	-0.837358	-13.492
1202.54	284.139	2584.3	2882.28	110.211	106.096	106.096	106.096	2886.39	1.32878	15.1046
1202.74	283.939	1661.66	1519.19	108.161	106.726	106.726	106.726	1520.62	-0.773661	-7.05191
1202.94	283.739	800.158	746.573	107.516	107.055	107.055	107.055	747.035	-0.419937	-2.65617
1203.14	283.539	518.012	366.766	107.364	107.227	107.227	107.227	366.903	-1.48459	-7.55544
1203.34	283.339	503.616	202.301	107.425	107.388	107.388	107.388	202.339	-3.00193	-15.0638
1203.54	283.139	270.222	138.698	107.447	107.438	107.438	107.438	138.707	-1.78895	-6.57574
1203.74	282.939	275.656	116.783	107.512	107.51	107.51	107.51	116.785	-2.13967	-7.94356
1203.94	282.739	148.285	110.026	107.55	107.55	107.55	107.55	110.026	-0.702537	-1.91295
1204.14	282.539	89.4836	108.161	107.565	107.565	107.565	107.565	108.161	0.441495	0.933862
1204.34	282.339	159.157	107.709	107.579	107.579	107.579	107.579	107.709	-0.911887	-2.5724
1204.54	282.139	109.271	107.616	107.59	107.59	107.59	107.59	107.616	-0.035401	-0.082747
1204.74	281.939	149.113	107.615	107.611	107.611	107.611	107.611	107.615	-0.759887	-2.07487
1204.94	281.739	125.325	107.616	107.615	107.615	107.615	107.615	107.616	-0.353732	-0.88548
1205.14	281.539	172.953	107.637	107.636	107.636	107.636	107.636	107.637	-1.11056	-3.26581
1205.34	281.339	93.261	107.64	107.64	107.64	107.64	107.64	107.64	0.332943	0.718961
1205.54	281.139	82.3878	82.3878	82.3878	82.3878	82.3878	82.3878	82.3878	0	0
1205.74	280.939	126.152	126.152	126.152	126.152	126.152	126.152	126.152	0	0
1205.94	280.739	83.3584	83.3584	83.3584	83.3584	83.3584	83.3584	83.3584	0	0
1206.14	280.539	66.2168	66.2168	66.2168	66.2168	66.2168	66.2168	66.2168	0	0
1206.34	280.339	121.707	121.707	121.707	121.707	121.707	121.707	121.707	0	0
1206.54	280.139	33.007	33.007	33.007	33.007	33.007	33.007	33.007	0	0
1206.74	279.939	19.9924	19.9924	19.9924	19.9924	19.9924	19.9924	19.9924	0	0
1206.94	279.739	26.233	26.233	26.233	26.233	26.233	26.233	26.233	0	0
1207.14	279.539	19.9922	19.9922	19.9922	19.9922	19.9922	19.9922	19.9922	0	0
1207.34	279.339	96.808	96.808	96.808	96.808	96.808	96.808	96.808	0	0
1207.54	279.139	51.5238	51.5238	51.5238	51.5238	51.5238	51.5238	51.5238	0	0
1207.74	278.939	60.8748	60.8748	60.8748	60.8748	60.8748	60.8748	60.8748	0	0
1207.94	278.739	49.8432	49.8432	49.8432	49.8432	49.8432	49.8432	49.8432	0	0