File: XPS/XPS/241019_C-2.1.csv
C1s Scan
	Characteristic Energy eV	1486.68	Acquisition Time s	0.05
KE_C1s Scan	BE_C1s Scan	CPS_C1s Scan	C-C/C-H_1_C1s Scan	C-O_2_C1s Scan	C=O_3_C1s Scan	O-C=O_4_C1s Scan	Background_C1s Scan	Envelope_C1s Scan	Normalised_Residual_C1s Scan	Residual_C1s Scan
1189.44	297.245	1126.78	1126.78	1126.78	1126.78	1126.78	1126.78	1126.78	0	0
1189.64	297.045	1171.38	1171.38	1171.38	1171.38	1171.38	1171.38	1171.38	0	0
1189.84	296.845	994.306	994.306	994.306	994.306	994.306	994.306	994.306	0	0
1190.04	296.645	1151.72	1151.72	1151.72	1151.72	1151.72	1151.72	1151.72	0	0
1190.24	296.445	1192.52	1192.52	1192.52	1192.52	1192.52	1192.52	1192.52	0	0
1190.44	296.245	1371.08	1371.08	1371.08	1371.08	1371.08	1371.08	1371.08	0	0
1190.64	296.045	1102.22	1102.22	1102.22	1102.22	1102.22	1102.22	1102.22	0	0
1190.84	295.845	1299.46	1299.46	1299.46	1299.46	1299.46	1299.46	1299.46	0	0
1191.04	295.645	1268.56	1268.56	1268.56	1268.56	1268.56	1268.56	1268.56	0	0
1191.24	295.445	1162.73	1162.73	1162.73	1162.73	1162.73	1162.73	1162.73	0	0
1191.44	295.245	1053.64	1053.64	1053.64	1053.64	1053.64	1053.64	1053.64	0	0
1191.64	295.045	1176.45	1176.45	1176.45	1176.45	1176.45	1176.45	1176.45	0	0
1191.84	294.845	1114.31	1114.31	1114.31	1114.31	1114.31	1114.31	1114.31	0	0
1192.04	294.645	1232.29	1232.29	1232.29	1232.29	1232.29	1232.29	1232.29	0	0
1192.24	294.445	1006.2	1006.2	1006.2	1006.2	1006.2	1006.2	1006.2	0	0
1192.44	294.245	1254.98	1254.98	1254.98	1254.98	1254.98	1254.98	1254.98	0	0
1192.64	294.045	980.804	980.804	980.804	980.804	980.804	980.804	980.804	0	0
1192.84	293.845	1054.83	1054.83	1054.83	1054.83	1054.83	1054.83	1054.83	0	0
1193.04	293.645	1111.32	1111.32	1111.32	1111.32	1111.32	1111.32	1111.32	0	0
1193.24	293.445	739.062	739.062	739.062	739.062	739.062	739.062	739.062	0	0
1193.44	293.245	963.108	963.108	963.108	963.108	963.108	963.108	963.108	0	0
1193.64	293.045	947.444	947.444	947.444	947.444	947.444	947.444	947.444	0	0
1193.84	292.845	977.622	977.622	977.622	977.622	977.622	977.622	977.622	0	0
1194.04	292.645	1190	1190	1190	1190	1190	1190	1190	0	0
1194.24	292.445	987.218	987.218	987.218	987.218	987.22	987.218	987.22	0	0
1194.44	292.245	950.71	950.71	950.71	950.71	950.719	950.71	950.719	0	0
1194.64	292.045	760.616	760.616	760.616	760.616	760.65	760.616	760.65	0	0
1194.84	291.845	1117.32	1117.32	1117.32	1117.32	1117.43	1117.32	1117.43	0	0
1195.04	291.645	625.296	625.296	625.296	625.296	625.653	625.296	625.654	0	0
1195.24	291.445	922.38	922.38	922.38	922.38	923.421	922.38	923.421	0	0
1195.44	291.245	1037.73	1037.73	1037.73	1037.73	1040.56	1037.73	1040.56	0	0
1195.64	291.045	944.842	986.97	986.97	986.971	994.124	986.97	994.126	0.358515	2.46418
1195.84	290.845	849.772	986.828	986.828	986.832	1003.67	986.828	1003.68	1.18056	7.69528
1196.04	290.645	918.7	986.661	986.661	986.678	1023.75	986.661	1023.77	0.775141	5.25355
1196.24	290.445	1231.36	986.458	986.458	986.514	1062.28	986.458	1062.33	-1.07711	-8.45161
1196.44	290.245	779.848	986.291	986.291	986.463	1130.17	986.291	1130.34	2.80644	17.5245
1196.64	290.045	979.216	986.144	986.145	986.633	1238.68	986.144	1239.17	1.85753	12.9975
1196.84	289.845	1488.45	985.765	985.767	987.067	1392.93	985.765	1394.23	-0.546065	-4.71081
1197.04	289.645	1581.22	985.011	985.017	988.233	1584.2	985.011	1587.43	0.0349195	0.310491
1197.24	289.445	2170.34	983.504	983.525	990.942	1779.76	983.504	1787.22	-1.83888	-19.1559
1197.44	289.245	2008.32	981.835	981.907	997.832	1928.1	981.835	1944.17	-0.320081	-3.20746
1197.64	289.045	2049.82	980.518	980.754	1012.45	1978.39	980.518	2010.56	-0.193887	-1.96287
1197.84	288.845	1836.67	979.212	979.934	1038.45	1910.98	979.212	1970.94	0.70056	6.71345
1198.04	288.645	1924.31	977.976	980.023	1079.26	1750.22	977.975	1853.56	-0.360655	-3.53765
1198.24	288.445	1727.22	976.814	982.271	1135.75	1550.07	976.81	1714.47	-0.0685801	-0.637318
1198.44	288.245	1822.1	975.636	989.129	1202.41	1360.5	975.617	1600.82	-1.15914	-11.0639
1198.64	288.045	1255.36	974.988	1006.11	1266.34	1210.87	974.909	1533.57	1.75583	13.9108
1198.84	287.845	1557.54	974.504	1041.3	1308.03	1107.21	974.198	1508.45	-0.278146	-2.45458
1199.04	287.645	1783.16	974.355	1107.21	1312.31	1042.71	973.248	1516.85	-1.4102	-13.3156
1199.24	287.445	1476.35	976.259	1221.08	1277.33	1006.17	972.56	1563.16	0.505169	4.34027
1199.44	287.245	1424.87	983.208	1396.74	1215.68	986.953	971.784	1667.22	1.43567	12.1179
1199.64	287.045	1886.66	1002.86	1637.19	1145.52	976.619	970.25	1851.44	-0.181343	-1.7613
1199.84	286.845	2044.68	1054.49	1920.21	1082.77	970.96	968.469	2123.03	0.387437	3.9174
1200.04	286.645	2451.4	1176.13	2189.53	1034.61	967.329	966.418	2468.34	0.0765067	0.847016
1200.24	286.445	2861.88	1435.73	2365	1001.28	964.042	963.733	2874.85	0.0542304	0.648715
1200.44	286.245	3381.88	1939.51	2383.94	979.655	960.619	960.52	3382.16	0.00108822	0.0141508
1200.64	286.045	4301.18	2821.54	2235.95	965.408	956.377	956.348	4110.23	-0.651058	-9.54769
1200.84	285.845	5045.62	4197.28	1974.58	954.471	950.48	950.472	5225.39	0.565906	8.98849
1201.04	285.645	6821.18	6065.6	1678.45	944.049	942.412	942.41	6803.29	-0.0484486	-0.894739
1201.24	285.445	8873.74	8182.36	1411.47	932.038	931.409	931.409	8663.05	-0.500118	-10.5344
1201.44	285.245	10542.7	10010.9	1204.41	918.231	918.007	918.007	10297.6	-0.533888	-12.2578
1201.64	285.045	11112.9	10901.9	1061.49	903.831	903.757	903.757	11059.7	-0.112843	-2.65996
1201.84	284.845	10768.9	10479.7	969.516	889.161	889.137	889.137	10560.1	-0.449946	-10.4407
1202.04	284.645	9739.94	8921.75	914.722	876.665	876.658	876.658	8959.82	-1.76753	-39.0059
1202.24	284.445	7157.52	6820.96	883.802	867.005	867.003	867.003	6837.77	-0.845123	-15.9877
1202.44	284.245	4901.74	4794.04	867.47	860.587	860.586	860.586	4800.92	-0.322003	-5.04103
1202.64	284.045	4020.66	3202.03	858.619	855.974	855.974	855.974	3204.68	-2.87752	-40.7992
1202.84	283.845	1954.85	2128.26	854.527	853.583	853.583	853.583	2129.2	0.881763	8.71754
1203.04	283.645	1536.16	1487.21	852.651	852.336	852.336	852.336	1487.52	-0.277465	-2.43171
1203.24	283.445	1246.94	1142.52	851.586	851.488	851.488	851.488	1142.61	-0.660649	-5.2165
1203.44	283.245	1277.75	973.754	850.713	850.685	850.685	850.685	973.782	-1.90147	-15.1984
1203.64	283.045	1286.52	898.215	850.155	850.147	850.147	850.147	898.222	-2.42073	-19.4151
1203.84	282.845	1121.58	867.145	849.759	849.757	849.757	849.757	867.147	-1.69883	-12.7218
1204.04	282.645	982.45	855.428	849.612	849.611	849.611	849.611	855.429	-0.906164	-6.35107
1204.24	282.445	776.408	851.356	849.557	849.557	849.557	849.557	851.356	0.601452	3.74741
1204.44	282.245	828.512	849.952	849.437	849.437	849.437	849.437	849.952	0.166554	1.07199
1204.64	282.045	866.134	849.518	849.382	849.382	849.382	849.382	849.518	-0.126246	-0.830796
1204.84	281.845	702.694	849.181	849.147	849.147	849.147	849.147	849.181	1.23566	7.32433
1205.04	281.645	728.996	849.029	849.021	849.021	849.021	849.021	849.029	0.994082	6.00164
1205.24	281.445	762.07	848.884	848.882	848.882	848.882	848.882	848.884	0.703196	4.34069
1205.44	281.245	975.724	848.754	848.754	848.754	848.754	848.754	848.754	-0.908915	-6.34851
1205.64	281.045	739.576	848.531	848.531	848.531	848.531	848.531	848.531	0.895859	5.44774
1205.84	280.845	881.19	848.397	848.397	848.397	848.397	848.397	848.397	-0.247023	-1.63967
1206.04	280.645	1025.77	848.266	848.266	848.266	848.266	848.266	848.266	-1.23928	-8.87521
1206.24	280.445	945.54	848.186	848.186	848.186	848.186	848.186	848.186	-0.707944	-4.8677
1206.44	280.245	754.432	754.432	754.432	754.432	754.432	754.432	754.432	0	0
1206.64	280.045	823.858	823.858	823.858	823.858	823.858	823.858	823.858	0	0
1206.84	279.845	745.53	745.53	745.53	745.53	745.53	745.53	745.53	0	0
1207.04	279.645	790.928	790.928	790.928	790.928	790.928	790.928	790.928	0	0
1207.24	279.445	828.148	828.148	828.148	828.148	828.148	828.148	828.148	0	0
1207.44	279.245	658.092	658.092	658.092	658.092	658.092	658.092	658.092	0	0
1207.64	279.045	766.484	766.484	766.484	766.484	766.484	766.484	766.484	0	0
1207.84	278.845	970.318	970.318	970.318	970.318	970.318	970.318	970.318	0	0
1208.04	278.645	640.082	640.082	640.082	640.082	640.082	640.082	640.082	0	0
1208.24	278.445	520.586	520.586	520.586	520.586	520.586	520.586	520.586	0	0
1208.44	278.245	1064.62	1064.62	1064.62	1064.62	1064.62	1064.62	1064.62	0	0