File: XPS/XPS/241019_195-2.1.csv
C1s Scan
	Characteristic Energy eV	1486.68	Acquisition Time s	0.05
KE_C1s Scan	BE_C1s Scan	CPS_C1s Scan	C-C/C-H_1_C1s Scan	C-O_2_C1s Scan	C=O_3_C1s Scan	O-C=O_4_C1s Scan	Background_C1s Scan	Envelope_C1s Scan	Normalised_Residual_C1s Scan	Residual_C1s Scan
1188.87	297.807	817.086	817.086	817.086	817.086	817.086	817.086	817.086	0	0
1189.07	297.607	901.37	901.37	901.37	901.37	901.37	901.37	901.37	0	0
1189.27	297.407	997.8	997.8	997.8	997.8	997.8	997.8	997.8	0	0
1189.47	297.207	866.624	866.624	866.624	866.624	866.624	866.624	866.624	0	0
1189.67	297.007	885.67	885.67	885.67	885.67	885.67	885.67	885.67	0	0
1189.87	296.807	809.386	809.386	809.386	809.386	809.386	809.386	809.386	0	0
1190.07	296.607	925.46	925.46	925.46	925.46	925.46	925.46	925.46	0	0
1190.27	296.407	786.886	786.886	786.886	786.886	786.886	786.886	786.886	0	0
1190.47	296.207	800.526	800.526	800.526	800.526	800.526	800.526	800.526	0	0
1190.67	296.007	592.014	592.014	592.014	592.014	592.014	592.014	592.014	0	0
1190.87	295.807	826.83	826.83	826.83	826.83	826.83	826.83	826.83	0	0
1191.07	295.607	858.582	858.582	858.582	858.582	858.582	858.582	858.582	0	0
1191.27	295.407	617.284	617.284	617.284	617.284	617.284	617.284	617.284	0	0
1191.47	295.207	766.374	766.374	766.374	766.374	766.374	766.374	766.374	0	0
1191.67	295.007	756.356	756.356	756.356	756.356	756.356	756.356	756.356	0	0
1191.87	294.807	565.24	565.24	565.24	565.24	565.24	565.24	565.24	0	0
1192.07	294.607	579.118	579.118	579.118	579.118	579.118	579.118	579.118	0	0
1192.27	294.407	438.34	438.34	438.34	438.34	438.34	438.34	438.34	0	0
1192.47	294.207	533.936	533.936	533.936	533.936	533.936	533.936	533.936	0	0
1192.67	294.007	591.086	591.086	591.086	591.086	591.086	591.086	591.086	0	0
1192.87	293.807	649.778	649.778	649.778	649.778	649.778	649.778	649.778	0	0
1193.07	293.607	572.254	572.254	572.254	572.254	572.254	572.254	572.254	0	0
1193.27	293.407	382.42	382.42	382.42	382.42	382.42	382.42	382.42	0	0
1193.47	293.207	541.262	541.262	541.262	541.262	541.262	541.262	541.262	0	0
1193.67	293.007	329.208	329.208	329.208	329.208	329.208	329.208	329.208	0	0
1193.87	292.807	394.854	394.854	394.854	394.854	394.856	394.854	394.856	0	0
1194.07	292.607	351.572	351.572	351.572	351.572	351.578	351.572	351.578	0	0
1194.27	292.407	252.414	252.414	252.414	252.414	252.435	252.414	252.436	0	0
1194.47	292.207	450.242	450.242	450.242	450.242	450.311	450.242	450.311	0	0
1194.67	292.007	259.414	259.414	259.414	259.415	259.621	259.414	259.622	0	0
1194.87	291.807	309.096	309.096	309.096	309.099	309.673	309.096	309.676	0	0
1195.07	291.607	230.908	230.908	230.908	230.921	232.41	230.908	232.423	0	0
1195.27	291.407	434.606	434.606	434.606	434.655	438.238	434.606	438.288	0	0
1195.47	291.207	318.052	318.052	318.052	318.219	326.26	318.052	326.427	0	0
1195.67	291.007	303.98	314.862	314.862	315.396	332.099	314.862	332.633	0.367481	1.43266
1195.87	290.807	488.068	314.821	314.821	316.398	348.418	314.821	349.994	-1.39751	-6.90368
1196.07	290.607	349.714	314.814	314.815	319.161	375.513	314.814	379.861	0.360467	1.50733
1196.27	290.407	569.898	314.785	314.786	325.969	415.668	314.785	426.853	-1.33986	-7.15223
1196.47	290.207	526.074	314.748	314.753	341.47	468.149	314.748	494.876	-0.304154	-1.55992
1196.67	290.007	698.378	314.687	314.705	374.434	525.957	314.687	585.721	-0.953226	-5.63283
1196.87	289.807	718.182	314.588	314.655	438.524	575.578	314.588	699.579	-0.155218	-0.93013
1197.07	289.607	871.084	314.468	314.702	553.221	600.907	314.468	839.893	-0.236308	-1.55953
1197.27	289.407	980.574	314.342	315.106	739.977	592.655	314.342	1019.05	0.274775	1.92399
1197.47	289.207	994.212	314.185	316.502	1011.71	553.706	314.185	1253.54	1.83909	12.9666
1197.67	289.007	1512.12	313.947	320.539	1358.53	497.908	313.947	1549.09	0.212558	1.84823
1197.87	288.807	1925.67	313.621	331.02	1728.02	440.912	313.621	1872.71	-0.269859	-2.64797
1198.07	288.607	1864.72	313.237	356.154	2028.05	393.436	313.236	2151.17	1.48326	14.3222
1198.27	288.407	2241.38	312.794	411.374	2158.25	359.128	312.791	2303.17	0.291838	3.08947
1198.47	288.207	2400.72	312.342	522.757	2070.29	337.071	312.331	2305.47	-0.434711	-4.76273
1198.67	288.007	2080.2	311.999	730.419	1796.01	324.188	311.94	2226.79	0.718702	7.3297
1198.87	287.807	2269.9	311.807	1081.18	1431.49	317.167	311.541	2207.02	-0.295111	-3.14393
1199.07	287.607	2390.68	312.186	1617.56	1073.81	313.504	311.089	2383.79	-0.0315055	-0.344455
1199.27	287.407	3004.28	314.687	2341.94	784.191	311.528	310.565	2820.65	-0.749129	-9.18147
1199.47	287.207	3800.14	323.98	3178.09	579.836	310.262	309.903	3462.46	-1.22488	-16.8841
1199.67	287.007	4057.88	353.282	3949.12	451.548	309.261	309.137	4135.8	0.273531	3.89619
1199.87	286.807	4768.46	433.97	4423.13	377.839	308.252	308.212	4618.55	-0.485417	-7.4953
1200.07	286.607	4915.84	634.519	4424.63	338.847	307.215	307.202	4783.6	-0.421739	-6.61191
1200.27	286.407	4819	1082.3	3953.63	319.698	306.281	306.278	4743.08	-0.244556	-3.79613
1200.47	286.207	5218.78	1973.89	3182.79	310.564	305.281	305.28	4856.69	-1.12078	-18.1047
1200.67	286.007	5681.8	3555.6	2344.5	306.161	304.213	304.213	5597.83	-0.249082	-4.19827
1200.87	285.807	7760.7	5978.91	1616.18	303.44	302.772	302.772	7292.98	-1.18719	-23.386
1201.07	285.607	10108.5	9091.08	1075.44	301.021	300.808	300.808	9865.93	-0.539407	-12.1267
1201.27	285.407	12078.5	12196.8	719.751	298.346	298.282	298.282	12618.3	1.0984	26.9931
1201.47	285.207	13724.1	14177.7	507.421	295.384	295.367	295.367	14389.7	1.27059	33.2837
1201.67	285.007	14638.1	14107.1	391.788	292.325	292.321	292.321	14206.6	-0.797609	-21.5783
1201.87	284.807	12283.3	12033.7	332.829	289.515	289.514	289.514	12077	-0.416218	-10.3149
1202.07	284.607	8509.52	8894.66	305.022	287.432	287.432	287.432	8912.25	0.976219	20.1365
1202.27	284.407	5671.62	5805.56	292.776	286.111	286.111	286.111	5812.22	0.417473	7.0302
1202.47	284.207	3222.32	3424.51	287.703	285.361	285.361	285.361	3426.85	0.805671	10.2265
1202.67	284.007	2143.62	1889.39	285.67	284.897	284.897	284.897	1890.17	-1.22408	-12.6727
1202.87	283.807	1234.97	1025.76	284.896	284.659	284.659	284.659	1026	-1.32971	-10.4489
1203.07	283.607	907.926	595.372	284.577	284.509	284.509	284.509	595.439	-2.31895	-15.6243
1203.27	283.407	665.862	403.446	284.433	284.415	284.415	284.415	403.464	-2.2738	-13.1199
1203.47	283.207	642.94	325.745	284.329	284.324	284.324	284.324	325.749	-2.79718	-15.8595
1203.67	283.007	462.752	297.472	284.263	284.262	284.262	284.262	297.473	-1.71803	-8.26397
1203.87	282.807	517.618	288.048	284.212	284.212	284.212	284.212	288.048	-2.25629	-11.4785
1204.07	282.607	423.466	285.199	284.186	284.186	284.186	284.186	285.199	-1.50242	-6.91333
1204.27	282.407	402.436	284.41	284.164	284.164	284.164	284.164	284.41	-1.31557	-5.9013
1204.47	282.207	404.892	284.201	284.147	284.147	284.147	284.147	284.201	-1.34119	-6.03456
1204.67	282.007	264.258	284.142	284.131	284.131	284.131	284.131	284.142	0.273511	0.994199
1204.87	281.807	374.124	284.121	284.119	284.119	284.119	284.119	284.121	-1.04048	-4.50013
1205.07	281.607	255.388	255.388	255.388	255.388	255.388	255.388	255.388	0	0
1205.27	281.407	208.956	208.956	208.956	208.956	208.956	208.956	208.956	0	0
1205.47	281.207	188.592	188.592	188.592	188.592	188.592	188.592	188.592	0	0
1205.67	281.007	249.076	249.076	249.076	249.076	249.076	249.076	249.076	0	0
1205.87	280.807	344.868	344.868	344.868	344.868	344.868	344.868	344.868	0	0
1206.07	280.607	367.582	367.582	367.582	367.582	367.582	367.582	367.582	0	0
1206.27	280.407	178.528	178.528	178.528	178.528	178.528	178.528	178.528	0	0
1206.47	280.207	216.916	216.916	216.916	216.916	216.916	216.916	216.916	0	0
1206.67	280.007	382.434	382.434	382.434	382.434	382.434	382.434	382.434	0	0
1206.87	279.807	277.908	277.908	277.908	277.908	277.908	277.908	277.908	0	0
1207.07	279.607	199.903	199.903	199.903	199.903	199.903	199.903	199.903	0	0
1207.27	279.407	222.338	222.338	222.338	222.338	222.338	222.338	222.338	0	0
1207.47	279.207	184.61	184.61	184.61	184.61	184.61	184.61	184.61	0	0
1207.67	279.007	232.7	232.7	232.7	232.7	232.7	232.7	232.7	0	0
1207.87	278.807	184.77	184.77	184.77	184.77	184.77	184.77	184.77	0	0