File: XPS/XPS/241019_195-3.3.csv
C1s Scan
	Characteristic Energy eV	1486.68	Acquisition Time s	0.05
KE_C1s Scan	BE_C1s Scan	CPS_C1s Scan	C-C/C-H_1_C1s Scan	C-O_2_C1s Scan	C=O_3_C1s Scan	O-C=O_4_C1s Scan	Background_C1s Scan	Envelope_C1s Scan	Normalised_Residual_C1s Scan	Residual_C1s Scan
1188.97	297.713	2282.92	2282.92	2282.92	2282.92	2282.92	2282.92	2282.92	0	0
1189.17	297.513	2588.04	2588.04	2588.04	2588.04	2588.04	2588.04	2588.04	0	0
1189.37	297.313	1989.11	1989.11	1989.11	1989.11	1989.11	1989.11	1989.11	0	0
1189.57	297.113	2096.12	2096.12	2096.12	2096.12	2096.12	2096.12	2096.12	0	0
1189.77	296.913	1994.72	1994.72	1994.72	1994.72	1994.72	1994.72	1994.72	0	0
1189.97	296.713	1877.84	1877.84	1877.84	1877.84	1877.84	1877.84	1877.84	0	0
1190.17	296.513	1768.89	1768.89	1768.89	1768.89	1768.89	1768.89	1768.89	0	0
1190.37	296.313	1720.85	1720.85	1720.85	1720.85	1720.85	1720.85	1720.85	0	0
1190.57	296.113	1953.5	1953.5	1953.5	1953.5	1953.5	1953.5	1953.5	0	0
1190.77	295.913	1798.34	1798.34	1798.34	1798.34	1798.34	1798.34	1798.34	0	0
1190.97	295.713	1654.28	1654.28	1654.28	1654.28	1654.28	1654.28	1654.28	0	0
1191.17	295.513	1443.91	1443.91	1443.91	1443.91	1443.91	1443.91	1443.91	0	0
1191.37	295.313	1531.32	1531.32	1531.32	1531.32	1531.32	1531.32	1531.32	0	0
1191.57	295.113	1323.74	1323.74	1323.74	1323.74	1323.74	1323.74	1323.74	0	0
1191.77	294.913	1180.86	1180.86	1180.86	1180.86	1180.86	1180.86	1180.86	0	0
1191.97	294.713	1603.12	1603.12	1603.12	1603.12	1603.12	1603.12	1603.12	0	0
1192.17	294.513	1372.98	1372.98	1372.98	1372.98	1372.98	1372.98	1372.98	0	0
1192.37	294.313	1234.61	1234.61	1234.61	1234.61	1234.61	1234.61	1234.61	0	0
1192.57	294.113	1209.95	1209.95	1209.95	1209.95	1209.95	1209.95	1209.95	0	0
1192.77	293.913	1043.5	1043.5	1043.5	1043.5	1043.5	1043.5	1043.5	0	0
1192.97	293.713	1009.08	1009.08	1009.08	1009.08	1009.08	1009.08	1009.08	0	0
1193.17	293.513	811.304	811.304	811.304	811.304	811.304	811.304	811.304	0	0
1193.37	293.313	800.338	800.338	800.338	800.338	800.338	800.338	800.338	0	0
1193.57	293.113	598.184	598.184	598.184	598.184	598.184	598.184	598.184	0	0
1193.77	292.913	610.07	610.07	610.07	610.07	610.07	610.07	610.07	0	0
1193.97	292.713	560.902	560.902	560.902	560.902	560.902	560.902	560.902	0	0
1194.17	292.513	749.598	749.598	749.598	749.598	749.598	749.598	749.598	0	0
1194.37	292.313	511.864	511.864	511.864	511.864	511.866	511.864	511.866	0	0
1194.57	292.113	527.726	527.726	527.726	527.726	527.734	527.726	527.734	0	0
1194.77	291.913	427.49	427.49	427.49	427.49	427.517	427.49	427.517	0	0
1194.97	291.713	393.86	393.86	393.86	393.86	393.947	393.86	393.947	0	0
1195.17	291.513	433.334	433.334	433.334	433.335	433.601	433.334	433.602	0	0
1195.37	291.313	432.05	432.05	432.05	432.056	432.812	432.05	432.818	0	0
1195.57	291.113	323.064	323.064	323.064	323.086	325.113	323.064	325.135	0	0
1195.77	290.913	493.748	438.503	438.503	438.58	443.618	438.503	443.694	-0.503696	-2.50269
1195.97	290.713	365.99	438.527	438.527	438.773	450.524	438.527	450.771	0.99094	4.23903
1196.17	290.513	420.774	438.59	438.59	439.338	464.754	438.59	465.502	0.487578	2.23642
1196.37	290.313	469.958	438.642	438.642	440.752	492.058	438.642	494.169	0.249727	1.21054
1196.57	290.113	673.088	438.719	438.72	444.312	539.948	438.719	545.542	-1.0993	-6.37728
1196.77	289.913	625.34	438.782	438.786	452.572	617.107	438.782	630.901	0.0497217	0.278028
1196.97	289.713	703.054	438.909	438.924	470.809	728.454	438.909	760.368	0.483341	2.86572
1197.17	289.513	869.782	439.11	439.167	507.761	870.248	439.11	938.956	0.524471	3.45869
1197.37	289.313	1103.41	439.433	439.63	577.631	1022.39	439.433	1160.79	0.386271	2.8691
1197.57	289.113	1424.16	439.877	440.524	698.043	1148.79	439.877	1407.6	-0.0981394	-0.828148
1197.77	288.913	1556.29	440.412	442.381	888.298	1210.07	440.412	1659.93	0.587411	5.1817
1197.97	288.713	1965.96	441.132	446.764	1156.47	1183.42	441.132	1904.4	-0.310471	-3.07818
1198.17	288.513	2555.32	442.049	457.028	1488.09	1079.86	442.049	2140.87	-1.83329	-20.7223
1198.37	288.313	2386.28	442.988	480.376	1829.49	934.104	442.988	2357.99	-0.12948	-1.41432
1198.57	288.113	2424.8	444.049	530.955	2093.64	786.215	444.049	2522.71	0.44461	4.89555
1198.77	287.913	2408.34	444.982	634.135	2195.57	662.8	444.977	2602.56	0.884939	9.71084
1198.97	287.713	2588.14	446	829.156	2095.58	573.527	445.966	2606.36	0.0800896	0.911076
1199.17	287.513	2802.48	447.209	1170.55	1833.53	516.246	446.991	2626.56	-0.743089	-8.79624
1199.37	287.313	2786.5	449.375	1713.79	1494.23	483.06	448.152	2796	0.040256	0.475166
1199.57	287.113	3764.4	455.812	2493.46	1165.04	466.094	449.663	3231.42	-1.94246	-26.6492
1199.77	286.913	3599.16	478.559	3472.98	899.314	458.606	451.402	3955.25	1.32724	17.8047
1199.97	286.713	4996.78	559.67	4508.21	711.693	456.467	453.509	4875.51	-0.383611	-6.06347
1200.17	286.513	6543.06	824.127	5348.16	594.383	457.307	456.175	5855.46	-1.90079	-34.3802
1200.37	286.313	6909.22	1583.16	5722.13	527.779	459.529	459.123	6915.23	0.0161764	0.300665
1200.57	286.113	8369.08	3504.13	5496.98	494.761	462.994	462.858	8570.3	0.491828	10.0609
1200.77	285.913	11919.3	7688.6	4756.19	481.812	468.064	468.021	11990.6	0.146045	3.5653
1200.97	285.713	18813	15420.3	3753.28	481.97	476.388	476.376	18702.8	-0.179635	-5.50942
1201.17	285.513	30124.2	27089.1	2757.08	491.701	489.594	489.59	29358.7	-0.986262	-38.2768
1201.37	285.313	41097.2	40383.9	1942.41	509.384	508.636	508.635	41818.5	0.795556	36.063
1201.57	285.113	50041.4	49739	1367.56	532.52	532.274	532.274	50574.5	0.532897	26.6559
1201.77	284.913	51012.6	49760.1	1008.42	557.871	557.795	557.795	50210.8	-0.793804	-40.0901
1201.97	284.713	41187.6	40443.7	805.782	579.625	579.603	579.603	40669.9	-0.570359	-25.8831
1202.17	284.513	26155	27182.3	700.243	594.455	594.449	594.449	27288.1	1.56666	56.6547
1202.37	284.313	15511.1	15538.2	649.268	603.053	603.052	603.052	15584.4	0.131559	3.66375
1202.57	284.113	7620.3	7823.05	626.322	607.463	607.463	607.463	7841.91	0.567658	11.0805
1202.77	283.913	4655.86	3648.56	617.021	609.828	609.828	609.828	3655.75	-3.27742	-50.0055
1202.97	283.713	2599.16	1734	613.52	610.956	610.956	610.956	1736.56	-3.78335	-43.1299
1203.17	283.513	1777.69	979.255	612.538	611.683	611.683	611.683	980.109	-4.22993	-39.8792
1203.37	283.313	1546.93	718.186	612.42	612.154	612.154	612.154	718.453	-4.71009	-41.4237
1203.57	283.113	1193.61	639.57	612.523	612.445	612.445	612.445	639.647	-3.58538	-27.6982
1203.77	282.913	1167.93	618.833	612.713	612.692	612.692	612.692	618.854	-3.59259	-27.4537
1203.97	282.713	832.082	613.989	612.773	612.768	612.768	612.768	613.995	-1.69057	-10.9044
1204.17	282.513	597.832	613.032	612.817	612.815	612.815	612.815	613.034	0.139022	0.760079
1204.37	282.313	614.902	612.859	612.826	612.826	612.826	612.826	612.86	-0.0184156	-0.102111
1204.57	282.113	652.066	612.887	612.882	612.882	612.882	612.882	612.887	-0.343079	-1.95896
1204.77	281.913	632.396	612.903	612.903	612.903	612.903	612.903	612.903	-0.173326	-0.974638
1204.97	281.713	517.46	517.46	517.46	517.46	517.46	517.46	517.46	0	0
1205.17	281.513	493.14	493.14	493.14	493.14	493.14	493.14	493.14	0	0
1205.37	281.313	406.78	406.78	406.78	406.78	406.78	406.78	406.78	0	0
1205.57	281.113	264.346	264.346	264.346	264.346	264.346	264.346	264.346	0	0
1205.77	280.913	415.76	415.76	415.76	415.76	415.76	415.76	415.76	0	0
1205.97	280.713	273.888	273.888	273.888	273.888	273.888	273.888	273.888	0	0
1206.17	280.513	378.638	378.638	378.638	378.638	378.638	378.638	378.638	0	0
1206.37	280.313	386.328	386.328	386.328	386.328	386.328	386.328	386.328	0	0
1206.57	280.113	323.344	323.344	323.344	323.344	323.344	323.344	323.344	0	0
1206.77	279.913	225.578	225.578	225.578	225.578	225.578	225.578	225.578	0	0
1206.97	279.713	285.492	285.492	285.492	285.492	285.492	285.492	285.492	0	0
1207.17	279.513	334.504	334.504	334.504	334.504	334.504	334.504	334.504	0	0
1207.37	279.313	360.488	360.488	360.488	360.488	360.488	360.488	360.488	0	0
1207.57	279.113	274.408	274.408	274.408	274.408	274.408	274.408	274.408	0	0
1207.77	278.913	229.76	229.76	229.76	229.76	229.76	229.76	229.76	0	0
1207.97	278.713	228.078	228.078	228.078	228.078	228.078	228.078	228.078	0	0