File: XPS/XPS/241019_191x195-1.2.csv
C1s Scan
	Characteristic Energy eV	1486.68	Acquisition Time s	0.05
KE_C1s Scan	BE_C1s Scan	CPS_C1s Scan	C-C/C-H_1_C1s Scan	C-O_2_C1s Scan	C=O_3_C1s Scan	O-C=O_4_C1s Scan	Background_C1s Scan	Envelope_C1s Scan	Normalised_Residual_C1s Scan	Residual_C1s Scan
1188.75	297.926	170.075	170.075	170.075	170.075	170.075	170.075	170.075	0	0
1188.95	297.726	88.702	88.702	88.702	88.702	88.702	88.702	88.702	0	0
1189.15	297.526	200.822	200.822	200.822	200.822	200.822	200.822	200.822	0	0
1189.35	297.326	133.592	133.592	133.592	133.592	133.592	133.592	133.592	0	0
1189.55	297.126	101.298	101.298	101.298	101.298	101.298	101.298	101.298	0	0
1189.75	296.926	166.876	166.876	166.876	166.876	166.876	166.876	166.876	0	0
1189.95	296.726	100.167	100.167	100.167	100.167	100.167	100.167	100.167	0	0
1190.15	296.526	153.166	153.166	153.166	153.166	153.166	153.166	153.166	0	0
1190.35	296.326	218.238	218.238	218.238	218.238	218.238	218.238	218.238	0	0
1190.55	296.126	132.742	132.742	132.742	132.742	132.742	132.742	132.742	0	0
1190.75	295.926	109.908	109.908	109.908	109.908	109.908	109.908	109.908	0	0
1190.95	295.726	156.046	156.046	156.046	156.046	156.046	156.046	156.046	0	0
1191.15	295.526	104.757	104.757	104.757	104.757	104.757	104.757	104.757	0	0
1191.35	295.326	99.1366	99.1366	99.1366	99.1366	99.1366	99.1366	99.1366	0	0
1191.55	295.126	81.3736	81.3736	81.3736	81.3736	81.3736	81.3736	81.3736	0	0
1191.75	294.926	81.5336	81.5336	81.5336	81.5336	81.5336	81.5336	81.5336	0	0
1191.95	294.726	99.5264	99.5264	99.5264	99.5264	99.5264	99.5264	99.5264	0	0
1192.15	294.526	38.3918	38.3918	38.3918	38.3918	38.3918	38.3918	38.3918	0	0
1192.35	294.326	79.9692	79.9692	79.9692	79.9692	79.9692	79.9692	79.9692	0	0
1192.55	294.126	43.646	43.646	43.646	43.646	43.646	43.646	43.646	0	0
1192.75	293.926	129.93	129.93	129.93	129.93	129.93	129.93	129.93	0	0
1192.95	293.726	39.941	39.941	39.941	39.941	39.941	39.941	39.941	0	0
1193.15	293.526	60.7588	60.7588	60.7588	60.7588	60.7588	60.7588	60.7588	0	0
1193.35	293.326	61.3378	61.3378	61.3378	61.3378	61.3379	61.3378	61.3379	0	0
1193.55	293.126	91.3474	91.3474	91.3474	91.3474	91.3477	91.3474	91.3477	0	0
1193.75	292.926	26.6938	26.6938	26.6938	26.6938	26.6947	26.6938	26.6947	0	0
1193.95	292.726	39.9846	39.9846	39.9846	39.9846	39.9875	39.9846	39.9875	0	0
1194.15	292.526	0	4.61198e-028	4.5815e-012	6.26026e-007	0.00836314	0	0.00836377	0	0
1194.35	292.326	104.684	104.684	104.684	104.684	104.707	104.684	104.707	0	0
1194.55	292.126	48.4832	48.4832	48.4832	48.4832	48.5438	48.4832	48.5438	0	0
1194.75	291.926	5.18134	5.18134	5.18134	5.18138	5.33167	5.18134	5.33171	0	0
1194.95	291.726	0	4.8741e-022	5.79413e-009	0.000145089	0.353013	0	0.353159	0	0
1195.15	291.526	0	1.26913e-020	3.01099e-008	0.000492167	0.784898	0	0.78539	0	0
1195.35	291.326	0	2.93243e-019	1.4786e-007	0.00158389	1.65259	0	1.65418	0	0
1195.55	291.126	14.8114	6.67169	6.67169	6.67651	9.96548	6.67169	9.97031	-0.281276	-0.242056
1195.75	290.926	39.9844	6.70345	6.70345	6.71734	12.9065	6.70345	12.9204	-0.957044	-1.3532
1195.95	290.726	39.9852	6.73995	6.73996	6.77779	17.7606	6.73995	17.7984	-0.784566	-1.10934
1196.15	290.526	17.2297	6.77983	6.77988	6.87744	25.2061	6.77983	25.3038	0.434949	0.403703
1196.35	290.326	99.9618	6.87944	6.87962	7.11775	35.7695	6.87944	36.008	-1.43032	-3.19769
1196.55	290.126	0	6.89771	6.89833	7.44851	49.1662	6.89771	49.7177	0	2.48588
1196.75	289.926	106.898	7.02749	7.02956	8.23259	64.3824	7.02749	65.5895	-0.893386	-2.06542
1196.95	289.726	97.157	7.14754	7.15401	9.64264	78.8263	7.14754	81.3279	-0.359091	-0.791455
1197.15	289.526	78.4498	7.26551	7.28463	12.1511	89.2226	7.26551	94.1273	0.395792	0.783876
1197.35	289.326	162.475	7.47621	7.52972	16.5135	92.7977	7.47621	101.888	-1.06284	-3.02934
1197.55	289.126	120.65	7.65385	7.79552	23.417	88.3979	7.65384	104.303	-0.332781	-0.817347
1197.75	288.926	165.398	7.86108	8.21627	33.7157	77.4712	7.86107	103.681	-1.07306	-3.08586
1197.95	288.726	72.4814	7.9714	8.81454	47.691	62.9261	7.97137	103.489	0.814402	1.55038
1198.15	288.526	225.492	8.2001	10.0951	65.0513	48.1995	8.19993	106.946	-1.76525	-5.92729
1198.35	288.326	59.744	8.3364	12.3681	83.6577	35.3633	8.33543	114.719	1.59039	2.74876
1198.55	288.126	109.98	8.54265	16.6652	100.262	25.5933	8.53767	125.45	0.329853	0.773504
1198.75	287.926	180.137	8.82837	24.2861	110.799	18.906	8.80496	136.404	-0.728597	-2.18662
1198.95	287.726	117.377	9.0896	36.8188	112.149	14.6246	8.98932	145.714	0.58485	1.41684
1199.15	287.526	260.218	9.74373	56.4598	104.221	12.3208	9.35325	154.686	-1.46286	-5.27662
1199.35	287.326	114.037	10.985	84.4201	89.1724	11.0654	9.58811	166.879	1.10647	2.64209
1199.55	287.126	140.569	14.4496	120.937	71.1504	10.5825	9.88669	187.459	0.884351	2.34452
1199.75	286.926	289.642	23.92	163.373	53.9145	10.6452	10.3349	220.848	-0.903863	-3.43968
1199.95	286.726	217.542	47.779	205.21	39.5317	10.8241	10.6931	271.265	0.814472	2.68616
1200.15	286.526	433.798	103.735	237.778	29.1551	11.3545	11.3021	348.115	-0.919885	-4.28413
1200.35	286.326	449.436	221.692	252.216	22.3389	11.9752	11.9554	472.356	0.241753	1.14602
1200.55	286.126	577.58	446.181	244.67	18.6576	12.9735	12.9664	683.583	0.986274	5.30016
1200.75	285.926	924.926	823.378	218.144	17.6732	14.7302	14.7278	1029.74	0.770654	5.24081
1200.95	285.726	1729.54	1369.27	180.773	18.8768	17.4363	17.4355	1534.05	-1.05109	-9.77439
1201.15	285.526	2077.64	2022.27	142.087	22.0017	21.3347	21.3345	2143.69	0.324016	3.30245
1201.35	285.326	2529.06	2608.82	108.272	25.7998	25.5075	25.5074	2691.87	0.72393	8.14069
1201.55	285.126	2808.42	2903.26	83.5323	30.7334	30.6122	30.6121	2956.31	0.623992	7.39427
1201.75	284.926	2971.5	2767.8	67.7695	36.0923	36.0447	36.0447	2799.57	-0.705252	-8.59641
1201.95	284.726	2156.56	2269.9	58.5511	40.6618	40.6441	40.6441	2287.83	0.632073	6.56346
1202.15	284.526	1753.55	1622.88	53.2829	43.7519	43.7456	43.7456	1632.42	-0.646789	-6.05628
1202.35	284.326	846.028	1030.7	50.4527	45.6541	45.652	45.652	1035.5	1.45661	9.47371
1202.55	284.126	555.304	595.353	49.079	46.7936	46.793	46.793	597.64	0.401722	2.11678
1202.75	283.926	323.5	322.586	48.4816	47.4514	47.4512	47.4512	323.617	0.00145388	0.00584725
1202.95	283.726	235.974	172.963	48.1151	47.6754	47.6754	47.6754	173.403	-0.910806	-3.12855
1203.15	283.526	150.542	99.8741	48.0268	47.8492	47.8492	47.8492	100.052	-0.920156	-2.5245
1203.35	283.326	63.8426	67.5913	47.9771	47.9092	47.9092	47.9092	67.6592	0.10681	0.190832
1203.55	283.126	124.791	54.8899	48.1026	48.078	48.078	48.078	54.9146	-1.39869	-3.4938
1203.75	282.926	75.5702	50.269	48.1179	48.1095	48.1095	48.1095	50.2774	-0.650589	-1.26464
1203.95	282.726	90.7982	48.777	48.1562	48.1534	48.1534	48.1534	48.7797	-0.986023	-2.10093
1204.15	282.526	49.105	48.3279	48.164	48.1631	48.1631	48.1631	48.3287	-0.024771	-0.0388143
1204.35	282.326	81.0724	48.2375	48.1978	48.1976	48.1976	48.1976	48.2377	-0.81542	-1.64173
1204.55	282.126	73.7742	48.2934	48.2847	48.2847	48.2847	48.2847	48.2935	-0.663352	-1.27404
1204.75	281.926	32.89	48.3057	48.304	48.304	48.304	48.304	48.3057	0.60106	0.770787
1204.95	281.726	57.603	48.3386	48.3383	48.3383	48.3383	48.3383	48.3386	-0.272947	-0.463218
1205.15	281.526	67.5774	48.4129	48.4129	48.4129	48.4129	48.4129	48.4129	-0.521293	-0.958225
1205.35	281.326	26.9274	48.4613	48.4613	48.4613	48.4613	48.4613	48.4613	0.92792	1.07669
1205.55	281.126	72.9188	48.5074	48.5074	48.5074	48.5074	48.5074	48.5074	-0.639231	-1.22057
1205.75	280.926	34.4102	34.4102	34.4102	34.4102	34.4102	34.4102	34.4102	0	0
1205.95	280.726	0	1.67957e-008	1.61313e-009	3.5288e-016	3.40332e-024	0	1.84088e-008	0	0
1206.15	280.526	0	1.77993e-009	2.81911e-010	4.01177e-017	2.47989e-025	0	2.06184e-009	0	0
1206.35	280.326	79.9258	79.9258	79.9258	79.9258	79.9258	79.9258	79.9258	0	0
1206.55	280.126	48.4826	48.4826	48.4826	48.4826	48.4826	48.4826	48.4826	0	0
1206.75	279.926	62.3956	62.3956	62.3956	62.3956	62.3956	62.3956	62.3956	0	0
1206.95	279.726	0	8.42126e-014	1.4762e-013	3.73108e-021	3.86446e-030	0	2.31833e-013	0	0
1207.15	279.526	39.9852	39.9852	39.9852	39.9852	39.9852	39.9852	39.9852	0	0
1207.35	279.326	11.6549	11.6549	11.6549	11.6549	11.6549	11.6549	11.6549	0	0
1207.55	279.126	0	1.78436e-017	2.77416e-016	1.90338e-024	5.1278e-034	0	2.95259e-016	0	0
1207.75	278.926	55.9228	55.9228	55.9228	55.9228	55.9228	55.9228	55.9228	0	0