File: XPS/XPS/241019_C-2.2.csv
C1s Scan
	Characteristic Energy eV	1486.68	Acquisition Time s	0.05
KE_C1s Scan	BE_C1s Scan	CPS_C1s Scan	C-C/C-H_1_C1s Scan	C-O_2_C1s Scan	C=O_3_C1s Scan	O-C=O_4_C1s Scan	Background_C1s Scan	Envelope_C1s Scan	Normalised_Residual_C1s Scan	Residual_C1s Scan
1188.93	297.749	1530.03	1530.03	1530.03	1530.03	1530.03	1530.03	1530.03	0	0
1189.13	297.549	1512.96	1512.96	1512.96	1512.96	1512.96	1512.96	1512.96	0	0
1189.33	297.349	1358.33	1358.33	1358.33	1358.33	1358.33	1358.33	1358.33	0	0
1189.53	297.149	1395.46	1395.46	1395.46	1395.46	1395.46	1395.46	1395.46	0	0
1189.73	296.949	1232.02	1232.02	1232.02	1232.02	1232.02	1232.02	1232.02	0	0
1189.93	296.749	1044.1	1044.1	1044.1	1044.1	1044.1	1044.1	1044.1	0	0
1190.13	296.549	1272.77	1272.77	1272.77	1272.77	1272.77	1272.77	1272.77	0	0
1190.33	296.349	1240.74	1240.74	1240.74	1240.74	1240.74	1240.74	1240.74	0	0
1190.53	296.149	1136.4	1136.4	1136.4	1136.4	1136.4	1136.4	1136.4	0	0
1190.73	295.949	1173.4	1173.4	1173.4	1173.4	1173.4	1173.4	1173.4	0	0
1190.93	295.749	1117.4	1117.4	1117.4	1117.4	1117.4	1117.4	1117.4	0	0
1191.13	295.549	993.542	993.542	993.542	993.542	993.542	993.542	993.542	0	0
1191.33	295.349	1041.25	1041.25	1041.25	1041.25	1041.25	1041.25	1041.25	0	0
1191.53	295.149	756.582	756.582	756.582	756.582	756.582	756.582	756.582	0	0
1191.73	294.949	1032.78	1032.78	1032.78	1032.78	1032.78	1032.78	1032.78	0	0
1191.93	294.749	785.826	785.826	785.826	785.826	785.826	785.826	785.826	0	0
1192.13	294.549	801.178	801.178	801.178	801.178	801.178	801.178	801.178	0	0
1192.33	294.349	663.036	663.036	663.036	663.036	663.036	663.036	663.036	0	0
1192.53	294.149	546.292	546.292	546.292	546.292	546.292	546.292	546.292	0	0
1192.73	293.949	604.728	604.728	604.728	604.728	604.728	604.728	604.728	0	0
1192.93	293.749	567.71	567.71	567.71	567.71	567.71	567.71	567.71	0	0
1193.13	293.549	618.036	618.036	618.036	618.036	618.036	618.036	618.036	0	0
1193.33	293.349	565.566	565.566	565.566	565.566	565.566	565.566	565.566	0	0
1193.53	293.149	534.528	534.528	534.528	534.528	534.528	534.528	534.528	0	0
1193.73	292.949	554.422	554.422	554.422	554.422	554.422	554.422	554.422	0	0
1193.93	292.749	533.26	533.26	533.26	533.26	533.26	533.26	533.26	0	0
1194.13	292.549	432.19	432.19	432.19	432.19	432.191	432.19	432.191	0	0
1194.33	292.349	530.886	530.886	530.886	530.886	530.889	530.886	530.889	0	0
1194.53	292.149	339.134	339.134	339.134	339.134	339.144	339.134	339.144	0	0
1194.73	291.949	236.2	236.2	236.2	236.2	236.234	236.2	236.234	0	0
1194.93	291.749	280.314	280.314	280.314	280.314	280.422	280.314	280.422	0	0
1195.13	291.549	289.914	289.914	289.914	289.914	290.23	289.914	290.23	0	0
1195.33	291.349	245.878	245.878	245.878	245.879	246.745	245.878	246.746	0	0
1195.53	291.149	314.308	314.308	314.308	314.31	316.54	314.308	316.542	0	0
1195.73	290.949	353.946	343.977	343.977	343.986	349.338	343.977	349.347	-0.054664	-0.229961
1195.93	290.749	178.412	343.95	343.95	343.981	356.061	343.95	356.092	2.9745	8.88403
1196.13	290.549	210.176	343.935	343.935	344.032	369.447	343.935	369.544	2.45808	7.96842
1196.33	290.349	315.32	343.921	343.921	344.213	394.205	343.921	394.498	0.997041	3.95889
1196.53	290.149	476.968	343.902	343.902	344.721	436.223	343.902	437.042	-0.408783	-1.99628
1196.73	289.949	318.434	343.887	343.889	346.029	501.192	343.887	503.334	2.31693	9.24501
1196.93	289.749	515.844	343.845	343.849	349.114	591.551	343.845	596.825	0.797277	4.04905
1197.13	289.549	794.474	343.779	343.796	355.871	701.165	343.779	713.274	-0.644171	-4.06
1197.33	289.349	783.42	343.679	343.739	369.704	812.193	343.679	838.279	0.438261	2.74293
1197.53	289.149	931.126	343.57	343.767	395.879	896.62	343.57	949.126	0.131903	0.900004
1197.73	288.949	1068.44	343.423	344.034	441.423	927.206	343.423	1025.82	-0.291597	-2.13129
1197.93	288.749	1261.09	343.256	345.015	514.157	892.677	343.256	1065.34	-1.23258	-9.78749
1198.13	288.549	1009.74	343.128	347.906	618.547	805.828	343.128	1086.02	0.53677	3.81399
1198.33	288.349	1077.33	342.983	355.092	751.061	693.865	342.982	1114.05	0.250192	1.83625
1198.53	288.149	996.788	342.855	371.599	893.557	584.757	342.853	1164.21	1.18575	8.37104
1198.73	287.949	1240.67	342.663	406.627	1013.55	495.605	342.651	1230.49	-0.0646441	-0.509146
1198.93	287.749	1325.09	342.527	475.258	1074.3	431.825	342.461	1296.52	-0.175457	-1.42816
1199.13	287.549	1609.39	342.616	600.507	1054.84	390.69	342.266	1361.85	-1.37973	-12.3768
1199.33	287.349	1343.35	343.709	808.864	961.282	366.575	342.056	1454.26	0.676655	5.54558
1199.53	287.149	1837.35	348.798	1124.9	825.571	353.359	341.788	1627.27	-1.09592	-10.5041
1199.73	286.949	1871.96	368.213	1553.02	684.136	346.618	341.501	1927.48	0.286945	2.77609
1199.93	286.749	2234.14	432.669	2055.98	563.17	343.255	341.136	2371.67	0.650611	6.87641
1200.13	286.549	2855.88	622.686	2541.57	473.145	341.411	340.592	2957.04	0.423273	5.05797
1200.33	286.349	3376.28	1121.62	2879.94	413.511	340.299	340.001	3735.37	1.38186	17.9543
1200.53	286.149	5118.9	2286.34	2956.58	377.088	339.291	339.19	4941.73	-0.553716	-8.8585
1200.73	285.949	7415.6	4672.39	2744.2	356.168	337.93	337.898	7097	-0.827285	-15.9299
1200.93	285.749	10921.3	8901.59	2317.28	344.206	335.981	335.972	10891.1	-0.0646274	-1.51022
1201.13	285.549	16356.2	15196.6	1805.12	336.593	333.128	333.125	16672.1	0.552241	15.7927
1201.33	285.349	23737	22623.5	1324.6	330.125	328.753	328.752	23620.7	-0.168803	-5.81538
1201.53	285.149	29140.4	28702.3	942.456	323.715	323.209	323.209	29322.1	0.237978	9.08384
1201.73	284.949	30279.8	30508.7	673.235	317.403	317.228	317.228	30864.9	0.751895	29.2563
1201.93	284.749	28612.4	27029.6	501.697	311.542	311.485	311.485	27219.8	-1.84087	-69.6284
1202.13	284.549	20039.8	20142.3	401.979	307.105	307.088	307.088	20237.2	0.311751	9.86823
1202.33	284.349	13105.8	12878.9	348.428	304.322	304.317	304.317	12923	-0.357062	-9.14029
1202.53	284.149	6564.26	7234.66	322.054	302.782	302.781	302.781	7253.93	1.90342	34.4835
1202.73	283.949	3781.62	3672.34	309.811	301.953	301.952	301.952	3680.2	-0.368768	-5.07081
1202.93	283.749	2527.62	1760.41	304.425	301.42	301.42	301.42	1763.41	-3.39892	-38.2104
1203.13	283.549	1442.15	866.51	302.239	301.162	301.162	301.162	867.587	-3.38312	-28.7282
1203.33	283.349	949.28	497.634	301.361	301.001	301.001	301.001	497.994	-3.27522	-22.5643
1203.53	283.149	849.388	362.336	300.997	300.884	300.884	300.884	362.45	-3.73599	-24.3469
1203.73	282.949	689.4	318.11	300.83	300.796	300.796	300.796	318.143	-3.16172	-18.5628
1203.93	282.749	421.362	305.151	300.769	300.759	300.759	300.759	305.16	-1.26582	-5.81012
1204.13	282.549	398.536	301.735	300.737	300.734	300.734	300.734	301.738	-1.08422	-4.83991
1204.33	282.349	303.272	300.913	300.708	300.708	300.708	300.708	300.913	-0.0302861	-0.117935
1204.53	282.149	302.148	300.739	300.701	300.701	300.701	300.701	300.739	-0.0181288	-0.0704633
1204.73	281.949	185.32	300.692	300.686	300.686	300.686	300.686	300.692	1.89506	5.76859
1204.93	281.749	425.488	300.665	300.664	300.664	300.664	300.664	300.665	-1.35312	-6.24116
1205.13	281.549	439.396	300.647	300.647	300.647	300.647	300.647	300.647	-1.48009	-6.93746
1205.33	281.349	248.986	248.986	248.986	248.986	248.986	248.986	248.986	0	0
1205.53	281.149	322.088	322.088	322.088	322.088	322.088	322.088	322.088	0	0
1205.73	280.949	185.463	185.463	185.463	185.463	185.463	185.463	185.463	0	0
1205.93	280.749	340.816	340.816	340.816	340.816	340.816	340.816	340.816	0	0
1206.13	280.549	393.422	393.422	393.422	393.422	393.422	393.422	393.422	0	0
1206.33	280.349	208.102	208.102	208.102	208.102	208.102	208.102	208.102	0	0
1206.53	280.149	372.718	372.718	372.718	372.718	372.718	372.718	372.718	0	0
1206.73	279.949	193.568	193.568	193.568	193.568	193.568	193.568	193.568	0	0
1206.93	279.749	213.378	213.378	213.378	213.378	213.378	213.378	213.378	0	0
1207.13	279.549	177.791	177.791	177.791	177.791	177.791	177.791	177.791	0	0
1207.33	279.349	115.394	115.394	115.394	115.394	115.394	115.394	115.394	0	0
1207.53	279.149	146.882	146.882	146.882	146.882	146.882	146.882	146.882	0	0
1207.73	278.949	249.146	249.146	249.146	249.146	249.146	249.146	249.146	0	0
1207.93	278.749	205.89	205.89	205.89	205.89	205.89	205.89	205.89	0	0