File: XPS/XPS/241019_195-2.2.csv
C1s Scan
	Characteristic Energy eV	1486.68	Acquisition Time s	0.05
KE_C1s Scan	BE_C1s Scan	CPS_C1s Scan	C-C/C-H_1_C1s Scan	C-O_2_C1s Scan	C=O_3_C1s Scan	O-C=O_4_C1s Scan	Background_C1s Scan	Envelope_C1s Scan	Normalised_Residual_C1s Scan	Residual_C1s Scan
1189.06	297.619	365.004	365.004	365.004	365.004	365.004	365.004	365.004	0	0
1189.26	297.419	334.614	334.614	334.614	334.614	334.614	334.614	334.614	0	0
1189.46	297.219	464.614	464.614	464.614	464.614	464.614	464.614	464.614	0	0
1189.66	297.019	436.402	436.402	436.402	436.402	436.402	436.402	436.402	0	0
1189.86	296.819	265.038	265.038	265.038	265.038	265.038	265.038	265.038	0	0
1190.06	296.619	348.67	348.67	348.67	348.67	348.67	348.67	348.67	0	0
1190.26	296.419	270.864	270.864	270.864	270.864	270.864	270.864	270.864	0	0
1190.46	296.219	217.224	217.224	217.224	217.224	217.224	217.224	217.224	0	0
1190.66	296.019	321.838	321.838	321.838	321.838	321.838	321.838	321.838	0	0
1190.86	295.819	292.954	292.954	292.954	292.954	292.954	292.954	292.954	0	0
1191.06	295.619	351.222	351.222	351.222	351.222	351.222	351.222	351.222	0	0
1191.26	295.419	264.346	264.346	264.346	264.346	264.346	264.346	264.346	0	0
1191.46	295.219	198.245	198.245	198.245	198.245	198.245	198.245	198.245	0	0
1191.66	295.019	281.256	281.256	281.256	281.256	281.256	281.256	281.256	0	0
1191.86	294.819	239.866	239.866	239.866	239.866	239.866	239.866	239.866	0	0
1192.06	294.619	206.282	206.282	206.282	206.282	206.282	206.282	206.282	0	0
1192.26	294.419	278.536	278.536	278.536	278.536	278.536	278.536	278.536	0	0
1192.46	294.219	194.633	194.633	194.633	194.633	194.633	194.633	194.633	0	0
1192.66	294.019	259.32	259.32	259.32	259.32	259.32	259.32	259.32	0	0
1192.86	293.819	207.92	207.92	207.92	207.92	207.92	207.92	207.92	0	0
1193.06	293.619	214.39	214.39	214.39	214.39	214.39	214.39	214.39	0	0
1193.26	293.419	206.858	206.858	206.858	206.858	206.858	206.858	206.858	0	0
1193.46	293.219	217.038	217.038	217.038	217.038	217.038	217.038	217.038	0	0
1193.66	293.019	147.203	147.203	147.203	147.203	147.203	147.203	147.203	0	0
1193.86	292.819	255.342	255.342	255.342	255.342	255.342	255.342	255.342	0	0
1194.06	292.619	215.358	215.358	215.358	215.358	215.358	215.358	215.358	0	0
1194.26	292.419	172.332	172.332	172.332	172.332	172.333	172.332	172.333	0	0
1194.46	292.219	76.193	76.193	76.193	76.193	76.1966	76.193	76.1966	0	0
1194.66	292.019	80.5916	80.5916	80.5916	80.5916	80.6034	80.5916	80.6035	0	0
1194.86	291.819	86.9054	86.9054	86.9054	86.9056	86.942	86.9054	86.9422	0	0
1195.06	291.619	208.656	208.656	208.656	208.657	208.762	208.656	208.763	0	0
1195.26	291.419	200.086	200.086	200.086	200.089	200.374	200.086	200.377	0	0
1195.46	291.219	140.496	140.496	140.496	140.507	141.229	140.496	141.24	0	0
1195.66	291.019	125.019	142.176	142.176	142.213	143.922	142.176	143.958	0.378758	0.946968
1195.86	290.819	150.358	142.145	142.145	142.256	146.037	142.145	146.148	-0.0767683	-0.210489
1196.06	290.619	130.551	142.138	142.138	142.462	150.272	142.138	150.596	0.392285	1.00225
1196.26	290.419	135.732	142.131	142.131	143.005	157.979	142.131	158.854	0.443772	1.15608
1196.46	290.219	188.388	142.085	142.086	144.314	170.913	142.085	173.142	-0.248371	-0.762274
1196.66	290.019	76.2658	142.008	142.01	147.303	190.646	142.008	195.945	3.06435	5.98396
1196.86	289.819	270.5	141.876	141.886	153.681	217.623	141.876	229.44	-0.558244	-2.05302
1197.06	289.619	346.026	141.766	141.803	166.387	249.875	141.766	274.534	-0.859391	-3.57462
1197.26	289.419	269.832	141.611	141.733	189.505	281.722	141.611	329.738	0.815465	2.99528
1197.46	289.219	600.008	141.253	141.624	228.277	304.639	141.253	392.034	-1.89852	-10.3987
1197.66	289.019	481.736	140.89	141.96	287.448	311.286	140.89	458.914	-0.23251	-1.14112
1197.86	288.819	518.358	140.538	143.414	368.448	299.153	140.538	529.938	0.113734	0.579018
1198.06	288.619	548.02	140.134	147.369	464.771	272.284	140.133	604.157	0.536211	2.80685
1198.26	288.419	661.938	139.592	156.702	559.477	238.927	139.591	675.925	0.121563	0.699352
1198.46	288.219	755.616	139.009	176.766	627.492	206.978	139.005	733.23	-0.182098	-1.11928
1198.66	288.019	877.444	138.209	216.338	646.532	180.892	138.189	767.405	-0.830659	-5.50196
1198.86	287.819	739.832	137.624	288.453	609.532	162.335	137.542	785.32	0.373948	2.27438
1199.06	287.619	994.95	137.1	408.107	529.216	150.186	136.789	814.241	-1.28104	-9.03545
1199.26	287.419	825.078	137.223	589.156	430.521	142.879	136.141	891.356	0.51595	3.31391
1199.46	287.219	998.718	138.722	832.235	336.322	138.415	135.241	1039.97	0.291893	2.06267
1199.66	287.019	1327.18	144.385	1115.66	260.125	135.436	134.038	1253.49	-0.452288	-3.68438
1199.86	286.819	1468.35	161.03	1386.2	205.743	133.188	132.612	1488.32	0.116565	0.998775
1200.06	286.619	1567.34	203.094	1570.55	170.418	131.2	130.977	1682.33	0.649429	5.74909
1200.26	286.419	1479.83	298.41	1605.92	149.208	129.49	129.409	1794.8	1.83086	15.7488
1200.46	286.219	1956.19	492.731	1479.95	136.823	127.528	127.501	1854.53	-0.513966	-5.08306
1200.66	286.019	1940.46	851.613	1235.3	129.647	125.558	125.55	1965.47	0.126938	1.25034
1200.86	285.819	2485.82	1445.25	945.754	124.907	123.221	123.218	2269.47	-0.970291	-10.8174
1201.06	285.619	3276.98	2310.56	675.995	121.101	120.449	120.448	2866.76	-1.6024	-20.5112
1201.26	285.419	3538.9	3387.03	462.014	117.138	116.903	116.903	3732.38	0.727246	9.67388
1201.46	285.219	4482.68	4462.76	310.854	112.729	112.649	112.649	4661.04	0.595689	8.91812
1201.66	285.019	5910.8	5202.36	212.785	106.837	106.812	106.812	5308.36	-1.75217	-30.122
1201.86	284.819	5305.54	5313.66	153.943	101.1	101.092	101.092	5366.51	0.187179	3.04865
1202.06	284.619	4748.24	4745.85	120.779	96.1784	96.1763	96.1763	4770.45	0.0720802	1.11063
1202.26	284.419	3476.24	3732.26	102.839	92.084	92.0834	92.0834	3743.02	1.01176	13.3388
1202.46	284.219	3090.92	2617.67	93.1793	88.7915	88.7914	88.7914	2622.06	-1.88577	-23.4432
1202.66	284.019	1589.65	1664.69	88.6479	86.966	86.966	86.966	1666.37	0.430251	3.83582
1202.86	283.819	888.87	979.034	86.5687	85.9651	85.9651	85.9651	979.637	0.680762	4.53836
1203.06	283.619	681.582	547.423	85.4828	85.2806	85.2806	85.2806	547.625	-1.14734	-6.69785
1203.26	283.419	352.932	304.714	85.0508	84.9869	84.9869	84.9869	304.778	-0.573159	-2.40772
1203.46	283.219	359.706	180.997	84.7372	84.7184	84.7184	84.7184	181.016	-2.10674	-8.93449
1203.66	283.019	272.22	123.524	84.5844	84.5792	84.5792	84.5792	123.529	-2.01516	-7.43454
1203.86	282.819	106.115	99.0017	84.4492	84.4479	84.4479	84.4479	99.0031	-0.154386	-0.355617
1204.06	282.619	102.798	89.3931	84.3675	84.3672	84.3672	84.3672	89.3934	-0.295628	-0.670229
1204.26	282.419	137.734	85.8913	84.2877	84.2876	84.2876	84.2876	85.8914	-0.987766	-2.59215
1204.46	282.219	166.297	84.679	84.2063	84.2063	84.2063	84.2063	84.679	-1.41523	-4.08089
1204.66	282.019	142.643	84.2917	84.1629	84.1628	84.1628	84.1628	84.2917	-1.09247	-2.91756
1204.86	281.819	89.9006	84.1799	84.1474	84.1474	84.1474	84.1474	84.1799	-0.134913	-0.286036
1205.06	281.619	114.175	84.1167	84.1091	84.1091	84.1091	84.1091	84.1167	-0.629015	-1.5029
1205.26	281.419	164.918	84.0627	84.0611	84.0611	84.0611	84.0611	84.0627	-1.40786	-4.04276
1205.46	281.219	114.38	84.0173	84.017	84.017	84.017	84.017	84.0173	-0.634823	-1.51814
1205.66	281.019	68.4766	68.4767	68.4766	68.4766	68.4766	68.4766	68.4767	0	0
1205.86	280.819	137.647	137.647	137.647	137.647	137.647	137.647	137.647	0	0
1206.06	280.619	133.708	133.708	133.708	133.708	133.708	133.708	133.708	0	0
1206.26	280.419	73.8466	73.8466	73.8466	73.8466	73.8466	73.8466	73.8466	0	0
1206.46	280.219	105.26	105.26	105.26	105.26	105.26	105.26	105.26	0	0
1206.66	280.019	69.2586	69.2586	69.2586	69.2586	69.2586	69.2586	69.2586	0	0
1206.86	279.819	59.934	59.934	59.934	59.934	59.934	59.934	59.934	0	0
1207.06	279.619	128.497	128.497	128.497	128.497	128.497	128.497	128.497	0	0
1207.26	279.419	32.3418	32.3418	32.3418	32.3418	32.3418	32.3418	32.3418	0	0
1207.46	279.219	67.4606	67.4606	67.4606	67.4606	67.4606	67.4606	67.4606	0	0
1207.66	279.019	65.3924	65.3924	65.3924	65.3924	65.3924	65.3924	65.3924	0	0
1207.86	278.819	111.34	111.34	111.34	111.34	111.34	111.34	111.34	0	0
1208.06	278.619	137.646	137.646	137.646	137.646	137.646	137.646	137.646	0	0