File: XPS/XPS/241019_195-3.2.csv
C1s Scan
	Characteristic Energy eV	1486.68	Acquisition Time s	0.05
KE_C1s Scan	BE_C1s Scan	CPS_C1s Scan	C-C/C-H_1_C1s Scan	C-O_2_C1s Scan	C=O_3_C1s Scan	O-C=O_4_C1s Scan	Background_C1s Scan	Envelope_C1s Scan	Normalised_Residual_C1s Scan	Residual_C1s Scan
1189.07	297.61	2605.88	2605.88	2605.88	2605.88	2605.88	2605.88	2605.88	0	0
1189.27	297.41	2117.08	2117.08	2117.08	2117.08	2117.08	2117.08	2117.08	0	0
1189.47	297.21	2033.98	2033.98	2033.98	2033.98	2033.98	2033.98	2033.98	0	0
1189.67	297.01	2299.56	2299.56	2299.56	2299.56	2299.56	2299.56	2299.56	0	0
1189.87	296.81	1979.43	1979.43	1979.43	1979.43	1979.43	1979.43	1979.43	0	0
1190.07	296.61	1787.95	1787.95	1787.95	1787.95	1787.95	1787.95	1787.95	0	0
1190.27	296.41	1823.98	1823.98	1823.98	1823.98	1823.98	1823.98	1823.98	0	0
1190.47	296.21	1592.71	1592.71	1592.71	1592.71	1592.71	1592.71	1592.71	0	0
1190.67	296.01	1793.54	1793.54	1793.54	1793.54	1793.54	1793.54	1793.54	0	0
1190.87	295.81	1725.84	1725.84	1725.84	1725.84	1725.84	1725.84	1725.84	0	0
1191.07	295.61	1796.15	1796.15	1796.15	1796.15	1796.15	1796.15	1796.15	0	0
1191.27	295.41	1522.55	1522.55	1522.55	1522.55	1522.55	1522.55	1522.55	0	0
1191.47	295.21	1325.41	1325.41	1325.41	1325.41	1325.41	1325.41	1325.41	0	0
1191.67	295.01	1570.41	1570.41	1570.41	1570.41	1570.41	1570.41	1570.41	0	0
1191.87	294.81	1162.45	1162.45	1162.45	1162.45	1162.45	1162.45	1162.45	0	0
1192.07	294.61	1169.12	1169.12	1169.12	1169.12	1169.12	1169.12	1169.12	0	0
1192.27	294.41	918.64	918.64	918.64	918.64	918.64	918.64	918.64	0	0
1192.47	294.21	896.714	896.714	896.714	896.714	896.714	896.714	896.714	0	0
1192.67	294.01	917.358	917.358	917.358	917.358	917.358	917.358	917.358	0	0
1192.87	293.81	964.38	964.38	964.38	964.38	964.38	964.38	964.38	0	0
1193.07	293.61	975.22	975.22	975.22	975.22	975.22	975.22	975.22	0	0
1193.27	293.41	789.266	789.266	789.266	789.266	789.266	789.266	789.266	0	0
1193.47	293.21	847.012	847.012	847.012	847.012	847.012	847.012	847.012	0	0
1193.67	293.01	550.43	550.43	550.43	550.43	550.43	550.43	550.43	0	0
1193.87	292.81	581.216	581.216	581.216	581.216	581.216	581.216	581.216	0	0
1194.07	292.61	810.708	810.708	810.708	810.708	810.708	810.708	810.708	0	0
1194.27	292.41	481.53	481.53	481.53	481.53	481.531	481.53	481.531	0	0
1194.47	292.21	704.05	704.05	704.05	704.05	704.054	704.05	704.054	0	0
1194.67	292.01	647.712	647.712	647.712	647.712	647.725	647.712	647.725	0	0
1194.87	291.81	594.82	594.82	594.82	594.82	594.866	594.82	594.866	0	0
1195.07	291.61	397.16	397.16	397.16	397.16	397.31	397.16	397.31	0	0
1195.27	291.41	384.858	384.858	384.858	384.859	385.313	384.858	385.314	0	0
1195.47	291.21	704.758	704.758	704.758	704.76	706.056	704.758	706.059	0	0
1195.67	291.01	426.316	482.213	482.213	482.222	485.658	482.213	485.667	0.642762	2.96757
1195.87	290.81	539.888	482.199	482.199	482.233	490.777	482.199	490.811	-0.472296	-2.45387
1196.07	290.61	391.006	482.187	482.187	482.301	502.073	482.187	502.187	1.25726	5.55907
1196.27	290.41	390.736	482.174	482.174	482.534	525.36	482.174	525.72	1.52696	6.74922
1196.47	290.21	552.842	482.166	482.166	483.235	569.398	482.166	570.468	0.167623	0.88129
1196.67	290.01	709.674	482.143	482.144	485.086	646.471	482.143	649.415	-0.505797	-3.01294
1196.87	289.81	763.592	482.097	482.1	489.716	768.653	482.097	776.275	0.102632	0.63416
1197.07	289.61	859.572	482.038	482.05	500.366	943.469	482.038	961.81	0.779749	5.11189
1197.27	289.41	1320.22	481.944	481.991	523.341	1161.8	481.944	1203.24	-0.719902	-5.849
1197.47	289.21	1180.2	481.827	481.992	568.725	1390.76	481.827	1477.82	1.93719	14.8811
1197.67	289.01	1822.57	481.639	482.184	652.221	1574.03	481.639	1745.16	-0.405461	-3.87058
1197.87	288.81	1814.3	481.425	483.112	791.753	1651.41	481.425	1963.42	0.782839	7.45611
1198.07	288.61	2051.28	481.144	486.024	1004.52	1595.76	481.144	2124.02	0.359117	3.63692
1198.27	288.41	2859.94	480.805	494.004	1291.55	1426.13	480.805	2250.07	-2.55002	-30.4935
1198.47	288.21	2484.32	480.49	513.839	1626.49	1200.17	480.49	2379.52	-0.470147	-5.23989
1198.67	288.01	2575.1	480.14	558.935	1943.67	976.449	480.139	2518.78	-0.248188	-2.8162
1198.87	287.81	2323.84	479.831	653.594	2152.23	792.516	479.826	2638.69	1.46046	15.7426
1199.07	287.61	2224.22	479.545	837.279	2181.29	661.266	479.506	2720.86	2.35472	24.8321
1199.27	287.41	2826.28	479.418	1164.66	2017.67	576.851	479.167	2801.1	-0.105903	-1.25893
1199.47	287.21	2927.54	480.147	1698.55	1721.9	527.714	478.747	2992.07	0.26667	3.22634
1199.67	287.01	3908.7	485.119	2482.39	1383.04	501.04	478.236	3416.89	-1.75901	-24.5906
1199.87	286.81	4519.2	507.73	3499.44	1076.48	487.551	477.593	4138.42	-1.26658	-19.0392
1200.07	286.61	4778.3	593.034	4620.2	840.883	480.932	476.889	5104.38	1.05481	16.3041
1200.27	286.41	6204.56	873.11	5592.85	680.152	477.563	476.02	6195.61	-0.0254063	-0.447489
1200.47	286.21	6821.18	1675.97	6120.41	581.46	475.556	475.009	7428.37	1.6439	30.3593
1200.67	286.01	9343.62	3673.05	6009.49	525.245	473.844	473.661	9260.65	-0.191933	-4.14852
1200.87	285.81	12802.8	7983.75	5304.32	495.187	471.861	471.805	12839.7	0.0729685	1.84617
1201.07	285.61	20560.4	15811.6	4245.16	478.683	468.83	468.813	19597.9	-1.50102	-48.1268
1201.27	285.41	31381.2	27377.2	3130.94	468.225	464.323	464.319	30047.7	-1.68325	-66.6757
1201.47	285.21	40766.4	40168	2176.28	459.559	458.12	458.119	41887.6	1.24173	56.0612
1201.67	285.01	49757.6	48645.8	1467.78	450.764	450.266	450.266	49663.8	-0.0940291	-4.69005
1201.87	284.81	49614.2	47804	1000.55	442.499	442.339	442.339	48362.4	-1.25668	-62.5914
1202.07	284.61	38995.6	38201	719.462	435.353	435.305	435.305	38485.2	-0.577925	-25.5191
1202.27	284.41	25404.8	25278.2	565.783	430.719	430.705	430.705	25413.3	0.0118835	0.423534
1202.47	284.21	13432.9	14234.4	487.974	428.206	428.202	428.202	14294.2	1.66178	43.0669
1202.67	284.01	6650.16	7028.4	451.74	426.948	426.947	426.947	7053.19	1.10512	20.1517
1202.87	283.81	3498.38	3182.25	435.867	426.297	426.296	426.296	3191.82	-1.15895	-15.328
1203.07	283.61	2043.78	1438.64	429.398	425.928	425.928	425.928	1442.11	-2.97597	-30.0837
1203.27	283.41	1769.36	753.304	426.846	425.676	425.676	425.676	754.473	-5.39502	-50.7442
1203.47	283.21	1303.24	519.767	425.891	425.52	425.52	425.52	520.137	-4.85056	-39.1552
1203.67	283.01	819.474	449.351	425.538	425.429	425.429	425.429	449.46	-2.89025	-18.5007
1203.87	282.81	941.118	430.696	425.359	425.329	425.329	425.329	430.726	-3.72021	-25.5196
1204.07	282.61	584.438	426.33	425.268	425.26	425.26	425.26	426.338	-1.46234	-7.905
1204.27	282.41	855.622	425.387	425.201	425.2	425.2	425.2	425.389	-3.28888	-21.5117
1204.47	282.21	606.84	425.185	425.157	425.156	425.156	425.156	425.186	-1.6489	-9.08272
1204.67	282.01	553.362	425.122	425.118	425.118	425.118	425.118	425.122	-1.219	-6.41199
1204.87	281.81	526.852	425.097	425.097	425.097	425.097	425.097	425.097	-0.991278	-5.08774
1205.07	281.61	427.858	425.093	425.093	425.093	425.093	425.093	425.093	-0.0298885	-0.138242
1205.27	281.41	500.624	500.624	500.624	500.624	500.624	500.624	500.624	0	0
1205.47	281.21	554.398	554.398	554.398	554.398	554.398	554.398	554.398	0	0
1205.67	281.01	367.196	367.196	367.196	367.196	367.196	367.196	367.196	0	0
1205.87	280.81	466.11	466.11	466.11	466.11	466.11	466.11	466.11	0	0
1206.07	280.61	428.618	428.618	428.618	428.618	428.618	428.618	428.618	0	0
1206.27	280.41	342.562	342.562	342.562	342.562	342.562	342.562	342.562	0	0
1206.47	280.21	390.074	390.074	390.074	390.074	390.074	390.074	390.074	0	0
1206.67	280.01	230.602	230.602	230.602	230.602	230.602	230.602	230.602	0	0
1206.87	279.81	439.79	439.79	439.79	439.79	439.79	439.79	439.79	0	0
1207.07	279.61	283.206	283.206	283.206	283.206	283.206	283.206	283.206	0	0
1207.27	279.41	250.068	250.068	250.068	250.068	250.068	250.068	250.068	0	0
1207.47	279.21	201.444	201.444	201.444	201.444	201.444	201.444	201.444	0	0
1207.67	279.01	117.901	117.901	117.901	117.901	117.901	117.901	117.901	0	0
1207.87	278.81	353.168	353.168	353.168	353.168	353.168	353.168	353.168	0	0
1208.07	278.61	242.03	242.03	242.03	242.03	242.03	242.03	242.03	0	0