File: XPS/XPS/241019_191x195-3.3.csv
C1s Scan
	Characteristic Energy eV	1486.68	Acquisition Time s	0.05
KE_C1s Scan	BE_C1s Scan	CPS_C1s Scan	C-C/C-H_1_C1s Scan	C-O_2_C1s Scan	C=O_3_C1s Scan	O-C=O_4_C1s Scan	Background_C1s Scan	Envelope_C1s Scan	Normalised_Residual_C1s Scan	Residual_C1s Scan
1188.86	297.824	906.686	906.686	906.686	906.686	906.686	906.686	906.686	0	0
1189.06	297.624	1260.47	1260.47	1260.47	1260.47	1260.47	1260.47	1260.47	0	0
1189.26	297.424	1032.98	1032.98	1032.98	1032.98	1032.98	1032.98	1032.98	0	0
1189.46	297.224	1148.8	1148.8	1148.8	1148.8	1148.8	1148.8	1148.8	0	0
1189.66	297.024	947.058	947.058	947.058	947.058	947.058	947.058	947.058	0	0
1189.86	296.824	897.122	897.122	897.122	897.122	897.122	897.122	897.122	0	0
1190.06	296.624	791.564	791.564	791.564	791.564	791.564	791.564	791.564	0	0
1190.26	296.424	770.472	770.472	770.472	770.472	770.472	770.472	770.472	0	0
1190.46	296.224	1008.65	1008.65	1008.65	1008.65	1008.65	1008.65	1008.65	0	0
1190.66	296.024	918.612	918.612	918.612	918.612	918.612	918.612	918.612	0	0
1190.86	295.824	871.606	871.606	871.606	871.606	871.606	871.606	871.606	0	0
1191.06	295.624	894.664	894.664	894.664	894.664	894.664	894.664	894.664	0	0
1191.26	295.424	673.35	673.35	673.35	673.35	673.35	673.35	673.35	0	0
1191.46	295.224	684.82	684.82	684.82	684.82	684.82	684.82	684.82	0	0
1191.66	295.024	628.844	628.844	628.844	628.844	628.844	628.844	628.844	0	0
1191.86	294.824	562.256	562.256	562.256	562.256	562.256	562.256	562.256	0	0
1192.06	294.624	456.51	456.51	456.51	456.51	456.51	456.51	456.51	0	0
1192.26	294.424	534.186	534.186	534.186	534.186	534.186	534.186	534.186	0	0
1192.46	294.224	470.742	470.742	470.742	470.742	470.742	470.742	470.742	0	0
1192.66	294.024	472.032	472.032	472.032	472.032	472.032	472.032	472.032	0	0
1192.86	293.824	540.098	540.098	540.098	540.098	540.098	540.098	540.098	0	0
1193.06	293.624	465.426	465.426	465.426	465.426	465.426	465.426	465.426	0	0
1193.26	293.424	335.474	335.474	335.474	335.474	335.474	335.474	335.474	0	0
1193.46	293.224	299.026	299.026	299.026	299.026	299.026	299.026	299.026	0	0
1193.66	293.024	410.95	410.95	410.95	410.95	410.951	410.95	410.951	0	0
1193.86	292.824	294.546	294.546	294.546	294.546	294.55	294.546	294.55	0	0
1194.06	292.624	415.094	415.094	415.094	415.094	415.105	415.094	415.105	0	0
1194.26	292.424	444.282	444.282	444.282	444.282	444.313	444.282	444.313	0	0
1194.46	292.224	230.514	230.514	230.514	230.514	230.599	230.514	230.599	0	0
1194.66	292.024	181.839	181.839	181.839	181.84	182.059	181.839	182.06	0	0
1194.86	291.824	127.949	127.949	127.949	127.95	128.491	127.949	128.491	0	0
1195.06	291.624	233.436	233.436	233.436	233.438	234.701	233.436	234.703	0	0
1195.26	291.424	303.25	303.25	303.25	303.256	306.053	303.25	306.059	0	0
1195.46	291.224	263.564	263.564	263.564	263.582	269.456	263.564	269.474	0	0
1195.66	291.024	212.662	225.49	225.49	225.541	237.261	225.49	237.312	0.377967	1.23249
1195.86	290.824	332.388	225.485	225.485	225.623	247.803	225.485	247.94	-1.03574	-4.22238
1196.06	290.624	342.752	225.48	225.48	225.833	265.531	225.48	265.884	-0.92841	-3.84339
1196.26	290.424	192.392	225.477	225.478	226.337	293.399	225.477	294.26	1.64221	5.0934
1196.46	290.224	300.194	225.468	225.473	227.454	334.048	225.468	336.039	0.462601	1.79223
1196.66	290.024	415.238	225.456	225.472	229.807	388.514	225.456	392.88	-0.245338	-1.11789
1196.86	289.824	398.836	225.437	225.485	234.483	454.265	225.437	463.358	0.722431	3.22611
1197.06	289.624	594.552	225.417	225.557	243.276	523.542	225.417	541.54	-0.486145	-2.65061
1197.26	289.424	567.046	225.387	225.776	258.863	583.737	225.387	617.601	0.474725	2.52776
1197.46	289.224	591.338	225.35	226.371	284.722	620.572	225.35	680.964	0.824144	4.48132
1197.66	289.024	796.918	225.31	227.856	324.765	623.81	225.31	725.81	-0.56324	-3.55538
1197.86	288.824	986.704	225.264	231.285	382.188	592.27	225.264	755.215	-1.64786	-11.5744
1198.06	288.624	661.824	225.211	238.754	457.549	535.098	225.211	780.979	1.03569	5.95777
1198.26	288.424	663.764	225.178	254.15	546.265	466.349	225.178	816.409	1.32483	7.63226
1198.46	288.224	932.654	225.13	283.898	636.506	399.203	225.129	869.351	-0.463497	-3.16514
1198.66	288.024	1051.28	225.077	338.075	710.693	342.297	225.072	940.926	-0.761023	-5.51749
1198.86	287.824	967.626	225.042	430.824	750.478	299.135	225.009	1030.45	0.451602	3.1412
1199.06	287.624	965.12	225.125	579.682	744.619	269.116	224.949	1143.69	1.28532	8.92871
1199.26	287.424	1533.71	225.705	802.307	694.431	249.712	224.85	1297.61	-1.34807	-11.805
1199.46	287.224	1594.68	228.475	1108.15	614.152	237.987	224.742	1514.54	-0.448725	-4.00684
1199.66	287.024	1575.45	239.265	1489.03	522.671	231.311	224.626	1808.4	1.31234	11.6475
1199.86	286.824	2023.94	276.027	1908.13	436.331	227.678	224.47	2174.76	0.749625	7.54098
1200.06	286.624	2469.14	387.664	2296.99	364.966	225.748	224.286	2602.51	0.600181	6.66868
1200.26	286.424	2937.78	688.932	2567.4	311.866	224.709	224.077	3120.68	0.754542	9.14489
1200.46	286.224	3972.46	1409.08	2647.41	275.476	224.065	223.806	3884.61	-0.311674	-4.39253
1200.66	286.024	5525.5	2922.89	2513.93	252.172	223.527	223.426	5242.24	-0.852087	-14.163
1200.86	285.824	7608.24	5680.22	2204.99	237.992	222.889	222.851	7677.53	0.177635	3.46462
1201.06	285.624	11539.6	9913.07	1799.91	229.58	222.037	222.024	11498.5	-0.0854144	-2.05169
1201.26	285.424	16594.3	15104.8	1383.62	224.388	220.809	220.804	16271.2	-0.560816	-16.1542
1201.46	285.224	20176.4	19623	1017.85	220.843	219.229	219.227	20423.3	0.388644	12.3441
1201.66	285.024	21433	21340.1	731.446	218.216	217.525	217.524	21854.7	0.644117	21.0859
1201.86	284.824	20386.6	19294.7	527.017	216.129	215.848	215.848	19606.2	-1.22222	-39.0219
1202.06	284.624	14461.3	14619.3	392.339	214.645	214.538	214.537	14797.2	0.624704	16.7982
1202.26	284.424	9440.48	9459.39	309.936	213.717	213.677	213.677	9555.69	0.265132	5.76028
1202.46	284.224	5067	5352.91	262.646	213.232	213.218	213.218	5402.35	1.05344	16.7676
1202.66	284.024	2738.08	2726.84	237.035	212.971	212.967	212.967	2750.92	0.054852	0.641802
1202.86	283.824	1585.31	1305.53	223.95	212.836	212.834	212.834	1316.65	-1.50878	-13.4328
1203.06	283.624	1058.1	637.347	217.624	212.755	212.755	212.755	642.217	-2.85889	-20.7944
1203.26	283.424	790.494	360.646	214.728	212.7	212.7	212.7	362.674	-3.40249	-21.391
1203.46	283.224	637.92	258.955	213.471	212.667	212.667	212.667	259.759	-3.34794	-18.908
1203.66	283.024	575.662	225.652	212.946	212.643	212.643	212.643	225.954	-3.25917	-17.4854
1203.86	282.824	309.82	215.911	212.735	212.628	212.628	212.628	216.018	-1.19163	-4.69009
1204.06	282.624	328.726	213.362	212.655	212.618	212.618	212.618	213.398	-1.42233	-5.76638
1204.26	282.424	248.988	212.757	212.618	212.606	212.606	212.606	212.769	-0.513256	-1.81096
1204.46	282.224	278.56	212.628	212.604	212.601	212.601	212.601	212.632	-0.88328	-3.29642
1204.66	282.024	173.392	212.602	212.599	212.598	212.598	212.598	212.603	0.665861	1.96057
1204.86	281.824	192.253	212.596	212.596	212.596	212.596	212.596	212.597	0.328074	1.01717
1205.06	281.624	184.77	184.77	184.77	184.77	184.77	184.77	184.77	0	0
1205.26	281.424	252.07	252.07	252.07	252.07	252.07	252.07	252.07	0	0
1205.46	281.224	153.078	153.078	153.078	153.078	153.078	153.078	153.078	0	0
1205.66	281.024	171.018	171.018	171.018	171.018	171.018	171.018	171.018	0	0
1205.86	280.824	221.482	221.482	221.482	221.482	221.482	221.482	221.482	0	0
1206.06	280.624	258.31	258.31	258.31	258.31	258.31	258.31	258.31	0	0
1206.26	280.424	212.318	212.318	212.318	212.318	212.318	212.318	212.318	0	0
1206.46	280.224	126.7	126.7	126.7	126.7	126.7	126.7	126.7	0	0
1206.66	280.024	136.79	136.79	136.79	136.79	136.79	136.79	136.79	0	0
1206.86	279.824	177.356	177.356	177.356	177.356	177.356	177.356	177.356	0	0
1207.06	279.624	133.825	133.825	133.825	133.825	133.825	133.825	133.825	0	0
1207.26	279.424	19.9928	19.9928	19.9928	19.9928	19.9928	19.9928	19.9928	0	0
1207.46	279.224	101.526	101.526	101.526	101.526	101.526	101.526	101.526	0	0
1207.66	279.024	171.667	171.667	171.667	171.667	171.667	171.667	171.667	0	0
1207.86	278.824	94.0434	94.0434	94.0434	94.0434	94.0434	94.0434	94.0434	0	0