File: XPS/XPS/241019_191x195-1.3.csv
C1s Scan
	Characteristic Energy eV	1486.68	Acquisition Time s	0.05
KE_C1s Scan	BE_C1s Scan	CPS_C1s Scan	C-C/C-H_1_C1s Scan	C-O_2_C1s Scan	C=O_3_C1s Scan	O-C=O_4_C1s Scan	Background_C1s Scan	Envelope_C1s Scan	Normalised_Residual_C1s Scan	Residual_C1s Scan
1188.82	297.86	1417.02	1417.02	1417.02	1417.02	1417.02	1417.02	1417.02	0	0
1189.02	297.66	1123.69	1123.69	1123.69	1123.69	1123.69	1123.69	1123.69	0	0
1189.22	297.46	979.432	979.432	979.432	979.432	979.432	979.432	979.432	0	0
1189.42	297.26	1099.58	1099.58	1099.58	1099.58	1099.58	1099.58	1099.58	0	0
1189.62	297.06	916.032	916.032	916.032	916.032	916.032	916.032	916.032	0	0
1189.82	296.86	877.888	877.888	877.888	877.888	877.888	877.888	877.888	0	0
1190.02	296.66	872.63	872.63	872.63	872.63	872.63	872.63	872.63	0	0
1190.22	296.46	1032.12	1032.12	1032.12	1032.12	1032.12	1032.12	1032.12	0	0
1190.42	296.26	848.23	848.23	848.23	848.23	848.23	848.23	848.23	0	0
1190.62	296.06	879.67	879.67	879.67	879.67	879.67	879.67	879.67	0	0
1190.82	295.86	720.016	720.016	720.016	720.016	720.016	720.016	720.016	0	0
1191.02	295.66	763.706	763.706	763.706	763.706	763.706	763.706	763.706	0	0
1191.22	295.46	658.1	658.1	658.1	658.1	658.1	658.1	658.1	0	0
1191.42	295.26	548.872	548.872	548.872	548.872	548.872	548.872	548.872	0	0
1191.62	295.06	634.85	634.85	634.85	634.85	634.85	634.85	634.85	0	0
1191.82	294.86	680.67	680.67	680.67	680.67	680.67	680.67	680.67	0	0
1192.02	294.66	622.856	622.856	622.856	622.856	622.856	622.856	622.856	0	0
1192.22	294.46	568.084	568.084	568.084	568.084	568.084	568.084	568.084	0	0
1192.42	294.26	715.004	715.004	715.004	715.004	715.004	715.004	715.004	0	0
1192.62	294.06	686.912	686.912	686.912	686.912	686.912	686.912	686.912	0	0
1192.82	293.86	340.452	340.452	340.452	340.452	340.452	340.452	340.452	0	0
1193.02	293.66	463.058	463.058	463.058	463.058	463.058	463.058	463.058	0	0
1193.22	293.46	440.934	440.934	440.934	440.934	440.934	440.934	440.934	0	0
1193.42	293.26	406.296	406.296	406.296	406.296	406.296	406.296	406.296	0	0
1193.62	293.06	394.714	394.714	394.714	394.714	394.714	394.714	394.714	0	0
1193.82	292.86	253.404	253.404	253.404	253.404	253.404	253.404	253.404	0	0
1194.02	292.66	279.808	279.808	279.808	279.808	279.809	279.808	279.809	0	0
1194.22	292.46	164.156	164.156	164.156	164.156	164.159	164.156	164.159	0	0
1194.42	292.26	184.725	184.725	184.725	184.725	184.734	184.725	184.734	0	0
1194.62	292.06	288.386	288.386	288.386	288.386	288.416	288.386	288.416	0	0
1194.82	291.86	195.555	195.555	195.555	195.555	195.646	195.555	195.646	0	0
1195.02	291.66	164.388	164.388	164.388	164.389	164.651	164.388	164.652	0	0
1195.22	291.46	171.639	171.639	171.639	171.642	172.346	171.639	172.348	0	0
1195.42	291.26	176.47	176.47	176.47	176.479	178.244	176.47	178.254	0	0
1195.62	291.06	249.878	196.437	196.437	196.47	200.6	196.437	200.634	-0.69659	-2.46222
1195.82	290.86	260.18	196.477	196.477	196.586	205.604	196.477	205.713	-0.755056	-2.72333
1196.02	290.66	165.632	196.485	196.485	196.817	215.144	196.485	215.476	0.866002	2.49216
1196.22	290.46	220.584	196.514	196.514	197.462	232.037	196.514	232.985	0.186703	0.620044
1196.42	290.26	363.758	196.597	196.597	199.112	259.327	196.597	261.842	-1.19488	-5.09582
1196.62	290.06	227.518	196.625	196.626	202.903	298.922	196.625	305.201	1.1516	3.88413
1196.82	289.86	415.858	196.698	196.702	211.257	349.601	196.698	364.164	-0.566827	-2.58469
1197.02	289.66	384.65	196.781	196.797	228.459	404.464	196.781	436.157	0.587247	2.57536
1197.22	289.46	523.97	196.869	196.926	260.912	450.751	196.869	514.85	-0.0890848	-0.455976
1197.42	289.26	497.396	196.986	197.176	317.819	473.965	196.986	594.99	0.978487	4.87968
1197.62	289.06	716.388	197.17	197.772	408.146	465.861	197.17	677.439	-0.32539	-1.94744
1197.82	288.86	655.008	197.387	199.15	537.632	429.368	197.387	771.377	1.01672	5.81847
1198.02	288.66	1109.89	197.667	202.528	699.772	377.179	197.667	884.144	-1.51519	-11.2874
1198.22	288.46	985.62	197.945	210.398	870.425	323.575	197.945	1008.51	0.163014	1.14437
1198.42	288.26	1105.19	198.25	228.198	1007.99	278.503	198.25	1118.19	0.087492	0.650386
1198.62	288.06	1396.83	198.647	265.686	1067.7	245.851	198.644	1181.95	-1.28561	-10.744
1198.82	287.86	1190.87	199.017	339.464	1028.54	224.682	198.997	1194.71	0.0249064	0.192188
1199.02	287.66	1292.64	199.49	472.978	904.357	212.388	199.379	1191.08	-0.631675	-5.07829
1199.22	287.46	1378.38	200.323	695.655	737.43	205.893	199.763	1240.01	-0.833343	-6.91819
1199.42	287.26	1399.71	202.711	1030.59	571.559	202.872	200.169	1407.22	0.0448929	0.375562
1199.62	287.06	1870.52	211.093	1479.63	435.131	201.847	200.737	1725.49	-0.749852	-7.25173
1199.82	286.86	2008.4	239.345	1996.16	337.835	201.869	201.441	2170.89	0.810744	8.12444
1200.02	286.66	2854.66	326.838	2475.93	275.774	202.49	202.337	2674.02	-0.75599	-9.03188
1200.22	286.46	3025.16	570.268	2781.15	240.184	203.401	203.349	3184.96	0.64965	7.98985
1200.42	286.26	3948.82	1173.79	2803.73	221.809	204.635	204.619	3790.11	-0.564757	-7.9356
1200.62	286.06	4804.44	2494.47	2537.49	213.75	206.246	206.241	4833.23	0.0928772	1.43951
1200.82	285.86	6831.02	5012.09	2077.01	211.647	208.592	208.591	6883.57	0.142164	2.62734
1201.02	285.66	10596.2	9094.93	1562.19	213.222	212.057	212.056	10446.2	-0.325738	-7.49771
1201.22	285.46	15166	14483.4	1105.28	217.498	217.084	217.084	15372	0.374142	10.3028
1201.42	285.26	19956.6	19760.9	760.535	224.415	224.277	224.277	20297.3	0.539176	17.0318
1201.62	285.06	23234.8	22637.2	531.954	232.602	232.559	232.559	22936.7	-0.437365	-14.9073
1201.82	284.86	21303	21546.2	395.959	240.865	240.853	240.853	21701.3	0.610161	19.9136
1202.02	284.66	16010.6	17110.2	322.582	247.684	247.681	247.681	17185.1	2.07556	58.7254
1202.22	284.46	11316	11530.7	286.12	252.399	252.399	252.399	11564.4	0.52213	12.4197
1202.42	284.26	6667.74	6752.18	269.349	255.155	255.155	255.155	6766.37	0.270093	4.93159
1202.62	284.06	3840.8	3533.68	262.26	256.682	256.682	256.682	3539.26	-1.08798	-15.0771
1202.82	283.86	2218	1721.49	259.605	257.555	257.555	257.555	1723.54	-2.34765	-24.7228
1203.02	283.66	1313.07	841.575	258.784	258.08	258.08	258.08	842.279	-2.90514	-23.5395
1203.22	283.46	937.762	466.799	258.61	258.384	258.384	258.384	467.025	-3.4373	-23.5369
1203.42	283.26	867.672	325.389	258.661	258.593	258.593	258.593	325.457	-4.11603	-27.1108
1203.62	283.06	496.5	277.926	258.725	258.706	258.706	258.706	277.945	-2.19324	-10.9277
1203.82	282.86	417.038	263.733	258.773	258.768	258.768	258.768	263.738	-1.67857	-7.66499
1204.02	282.66	423.372	259.979	258.829	258.828	258.828	258.828	259.98	-1.77564	-8.16961
1204.22	282.46	223.074	259.08	258.841	258.841	258.841	258.841	259.081	0.539069	1.80034
1204.42	282.26	319.718	258.919	258.874	258.874	258.874	258.874	258.919	-0.760324	-3.03995
1204.62	282.06	185.142	258.904	258.896	258.896	258.896	258.896	258.904	1.21218	3.6881
1204.82	281.86	258.498	258.899	258.897	258.897	258.897	258.897	258.899	0.00557154	0.0200304
1205.02	281.66	231.412	258.906	258.906	258.906	258.906	258.906	258.906	0.404141	1.37471
1205.22	281.46	214.78	258.916	258.916	258.916	258.916	258.916	258.916	0.673406	2.20678
1205.42	281.26	213.554	258.927	258.927	258.927	258.927	258.927	258.927	0.694276	2.26867
1205.62	281.06	331.376	331.376	331.376	331.376	331.376	331.376	331.376	0	0
1205.82	280.86	206.004	206.004	206.004	206.004	206.004	206.004	206.004	0	0
1206.02	280.66	186.678	186.678	186.678	186.678	186.678	186.678	186.678	0	0
1206.22	280.46	147.473	147.473	147.473	147.473	147.473	147.473	147.473	0	0
1206.42	280.26	129.813	129.813	129.813	129.813	129.813	129.813	129.813	0	0
1206.62	280.06	113.875	113.875	113.875	113.875	113.875	113.875	113.875	0	0
1206.82	279.86	107.796	107.796	107.796	107.796	107.796	107.796	107.796	0	0
1207.02	279.66	128.798	128.798	128.798	128.798	128.798	128.798	128.798	0	0
1207.22	279.46	59.9778	59.9778	59.9778	59.9778	59.9778	59.9778	59.9778	0	0
1207.42	279.26	145.13	145.13	145.13	145.13	145.13	145.13	145.13	0	0
1207.62	279.06	154.715	154.715	154.715	154.715	154.715	154.715	154.715	0	0
1207.82	278.86	70.617	70.617	70.617	70.617	70.617	70.617	70.617	0	0