File: XPS/XPS/241019_195-1.1.csv
C1s Scan
	Characteristic Energy eV	1486.68	Acquisition Time s	0.05
KE_C1s Scan	BE_C1s Scan	CPS_C1s Scan	C-C/C-H_1_C1s Scan	C-O_2_C1s Scan	C=O_3_C1s Scan	O-C=O_4_C1s Scan	Background_C1s Scan	Envelope_C1s Scan	Normalised_Residual_C1s Scan	Residual_C1s Scan
1189.03	297.647	1978.32	1978.32	1978.32	1978.32	1978.32	1978.32	1978.32	0	0
1189.23	297.447	1949.89	1949.89	1949.89	1949.89	1949.89	1949.89	1949.89	0	0
1189.43	297.247	1826.49	1826.49	1826.49	1826.49	1826.49	1826.49	1826.49	0	0
1189.63	297.047	1543.05	1543.05	1543.05	1543.05	1543.05	1543.05	1543.05	0	0
1189.83	296.847	1713.36	1713.36	1713.36	1713.36	1713.36	1713.36	1713.36	0	0
1190.03	296.647	1723.13	1723.13	1723.13	1723.13	1723.13	1723.13	1723.13	0	0
1190.23	296.447	1593.83	1593.83	1593.83	1593.83	1593.83	1593.83	1593.83	0	0
1190.43	296.247	1612.65	1612.65	1612.65	1612.65	1612.65	1612.65	1612.65	0	0
1190.63	296.047	1599.65	1599.65	1599.65	1599.65	1599.65	1599.65	1599.65	0	0
1190.83	295.847	1645.33	1645.33	1645.33	1645.33	1645.33	1645.33	1645.33	0	0
1191.03	295.647	1469.78	1469.78	1469.78	1469.78	1469.78	1469.78	1469.78	0	0
1191.23	295.447	1306.09	1306.09	1306.09	1306.09	1306.09	1306.09	1306.09	0	0
1191.43	295.247	1545.38	1545.38	1545.38	1545.38	1545.38	1545.38	1545.38	0	0
1191.63	295.047	1444.76	1444.76	1444.76	1444.76	1444.76	1444.76	1444.76	0	0
1191.83	294.847	1025.59	1025.59	1025.59	1025.59	1025.59	1025.59	1025.59	0	0
1192.03	294.647	1201	1201	1201	1201	1201	1201	1201	0	0
1192.23	294.447	1330.8	1330.8	1330.8	1330.8	1330.8	1330.8	1330.8	0	0
1192.43	294.247	1039.59	1039.59	1039.59	1039.59	1039.59	1039.59	1039.59	0	0
1192.63	294.047	1313.86	1313.86	1313.86	1313.86	1313.86	1313.86	1313.86	0	0
1192.83	293.847	867.97	867.97	867.97	867.97	867.97	867.97	867.97	0	0
1193.03	293.647	1013.01	1013.01	1013.01	1013.01	1013.01	1013.01	1013.01	0	0
1193.23	293.447	777.704	777.704	777.704	777.704	777.704	777.704	777.704	0	0
1193.43	293.247	805.99	805.99	805.99	805.99	805.99	805.99	805.99	0	0
1193.63	293.047	1007.69	1007.69	1007.69	1007.69	1007.69	1007.69	1007.69	0	0
1193.83	292.847	693.016	693.016	693.016	693.016	693.017	693.016	693.017	0	0
1194.03	292.647	879.492	879.492	879.492	879.492	879.496	879.492	879.496	0	0
1194.23	292.447	738.916	738.916	738.916	738.916	738.929	738.916	738.929	0	0
1194.43	292.247	765.568	765.568	765.568	765.569	765.61	765.568	765.61	0	0
1194.63	292.047	557.298	557.298	557.298	557.3	557.426	557.298	557.429	0	0
1194.83	291.847	705.474	705.474	705.474	705.482	705.845	705.474	705.853	0	0
1195.03	291.647	753.672	753.672	753.672	753.701	754.678	753.672	754.708	0	0
1195.23	291.447	607.994	607.994	607.994	608.093	610.554	607.994	610.653	0	0
1195.43	291.247	548.338	548.338	548.338	548.651	554.485	548.338	554.798	0	0
1195.63	291.047	816.864	670.797	670.797	671.727	684.655	670.797	685.585	-1.02708	-6.56396
1195.83	290.847	887.018	670.742	670.742	673.341	700.049	670.742	702.649	-1.38423	-9.21847
1196.03	290.647	658.424	670.723	670.723	677.575	728.845	670.723	735.698	0.673385	3.86368
1196.23	290.447	599	670.696	670.697	687.636	778.902	670.696	795.842	1.79841	9.84211
1196.43	290.247	888.424	670.65	670.654	709.957	858.675	670.65	897.986	0.0717313	0.478084
1196.63	290.047	958.942	670.564	670.579	756.351	974.318	670.564	1060.12	0.730592	5.0589
1196.83	289.847	1388.47	670.364	670.419	846.416	1124.14	670.364	1300.24	-0.529413	-4.41111
1197.03	289.647	1737.98	670.003	670.188	1008.35	1292.33	670.003	1630.86	-0.574588	-5.35629
1197.23	289.447	2070.16	669.619	670.213	1277.6	1446.18	669.619	2054.75	-0.0757176	-0.770343
1197.43	289.247	3201.02	668.921	670.703	1688.13	1544.1	668.921	2565.09	-2.51333	-31.7964
1197.63	289.047	3020.38	668.194	673.239	2253.37	1554.57	668.194	3144.79	0.5062	6.22068
1197.83	288.847	4026.42	667.282	680.716	2938.06	1472.91	667.282	3757.13	-0.94897	-13.4647
1198.03	288.647	4343.5	666.144	699.694	3639.45	1326.59	666.144	4333.44	-0.0341179	-0.50279
1198.23	288.447	4361.2	664.921	743.584	4193.16	1156.73	664.921	4763.63	1.36262	20.1216
1198.43	288.247	5566.5	663.479	837.259	4432.05	998.872	663.476	4941.23	-1.87397	-31.2635
1198.63	288.047	4780.58	662.134	1022.58	4276.41	873.397	662.117	4848.17	0.218597	3.37963
1198.83	287.847	4568.32	660.899	1361.3	3778.76	784.437	660.807	4602.97	0.114625	1.73237
1199.03	287.647	4770.02	659.971	1933.02	3092.4	726.998	659.53	4433.81	-1.08853	-16.8107
1199.23	287.447	4424.86	660.307	2821.2	2390.25	692.83	658.365	4589.5	0.55343	8.23185
1199.43	287.247	5583.82	664.644	4066.35	1790.84	673.504	656.958	5224.46	-1.07534	-17.9678
1199.63	287.047	6157.86	683.029	5612.17	1342.57	662.77	655.316	6334.59	0.503603	8.83667
1199.83	286.847	8358.28	743.473	7250.45	1041.39	656.196	653.046	7732.37	-1.53086	-31.2953
1200.03	286.647	8937.94	917.269	8618.11	855.556	651.618	650.366	9091.46	0.363096	7.67582
1200.23	286.447	10074.8	1364.22	9318.9	748.995	647.936	647.467	10137.6	0.140003	3.14225
1200.43	286.247	11301.9	2381.03	9119.57	691.447	644.53	644.365	10903.5	-0.838077	-19.9226
1200.63	286.047	12159.6	4440.03	8086.64	661.448	640.921	640.867	11906.4	-0.513366	-12.6582
1200.83	285.847	14935.7	8092.3	6544.84	645.093	636.658	636.641	14009	-1.69555	-46.3347
1201.03	285.647	17239.3	13626.8	4902.84	634.887	631.635	631.63	17901.2	1.12725	33.0954
1201.23	285.447	24183.6	20499.6	3460.47	625.937	624.762	624.761	23336.5	-1.21807	-42.3561
1201.43	285.247	29031.8	26834.6	2357.52	616.735	616.333	616.333	28576.2	-0.597902	-22.7799
1201.63	285.047	29914.8	30001.1	1603.16	607.17	607.041	607.041	30997.4	1.39959	54.1288
1201.83	284.847	30289.4	28376.3	1129.81	597.554	597.515	597.515	28908.6	-1.77405	-69.0394
1202.03	284.647	22813.8	22823.4	856.126	589.888	589.877	589.877	23089.6	0.408361	13.792
1202.23	284.447	15165	15847	709.427	584.516	584.513	584.513	15971.9	1.46519	40.3461
1202.43	284.247	9714.96	9720.96	636.311	581.104	581.103	581.103	9776.17	0.138861	3.06046
1202.63	284.047	5737.38	5420.23	602.214	579.308	579.308	579.308	5443.14	-0.868623	-14.712
1202.83	283.847	3475.22	2875.51	587.109	578.192	578.192	578.192	2884.43	-2.24092	-29.5395
1203.03	283.647	2425.46	1557.69	580.732	577.469	577.469	577.469	1560.96	-3.92514	-43.2252
1203.23	283.447	1595.59	955.558	578.254	577.128	577.128	577.128	956.685	-3.57652	-31.9453
1203.43	283.247	1401.64	709.318	577.243	576.878	576.878	576.878	709.683	-4.1328	-34.5977
1203.63	283.047	1010.75	618.567	576.828	576.718	576.718	576.718	618.678	-2.75759	-19.6036
1203.83	282.847	871.658	588.68	576.645	576.613	576.613	576.613	588.712	-2.14297	-14.1473
1204.03	282.647	944.016	579.68	576.547	576.539	576.539	576.539	579.688	-2.65147	-18.2164
1204.23	282.447	693.082	577.258	576.52	576.518	576.518	576.518	577.26	-0.983748	-5.7911
1204.43	282.247	656.674	576.645	576.487	576.487	576.487	576.487	576.646	-0.698318	-4.00141
1204.63	282.047	497.05	576.501	576.471	576.471	576.471	576.471	576.501	0.796868	3.97257
1204.83	281.847	491.92	491.925	491.92	491.92	491.92	491.92	491.925	0	0
1205.03	281.647	556.954	556.955	556.954	556.954	556.954	556.954	556.955	0	0
1205.23	281.447	522.224	522.224	522.224	522.224	522.224	522.224	522.224	0	0
1205.43	281.247	684.554	684.554	684.554	684.554	684.554	684.554	684.554	0	0
1205.63	281.047	389.978	389.978	389.978	389.978	389.978	389.978	389.978	0	0
1205.83	280.847	291.944	291.944	291.944	291.944	291.944	291.944	291.944	0	0
1206.03	280.647	618.406	618.406	618.406	618.406	618.406	618.406	618.406	0	0
1206.23	280.447	619.802	619.802	619.802	619.802	619.802	619.802	619.802	0	0
1206.43	280.247	340.588	340.588	340.588	340.588	340.588	340.588	340.588	0	0
1206.63	280.047	342.334	342.334	342.334	342.334	342.334	342.334	342.334	0	0
1206.83	279.847	327.714	327.714	327.714	327.714	327.714	327.714	327.714	0	0
1207.03	279.647	447.844	447.844	447.844	447.844	447.844	447.844	447.844	0	0
1207.23	279.447	419.5	419.5	419.5	419.5	419.5	419.5	419.5	0	0
1207.43	279.247	600.18	600.18	600.18	600.18	600.18	600.18	600.18	0	0
1207.63	279.047	309.818	309.818	309.818	309.818	309.818	309.818	309.818	0	0
1207.83	278.847	373.156	373.156	373.156	373.156	373.156	373.156	373.156	0	0
1208.03	278.647	333.458	333.458	333.458	333.458	333.458	333.458	333.458	0	0