File: XPS/XPS/241019_195-2.3.csv
C1s Scan
	Characteristic Energy eV	1486.68	Acquisition Time s	0.05
KE_C1s Scan	BE_C1s Scan	CPS_C1s Scan	C-C/C-H_1_C1s Scan	C-O_2_C1s Scan	C=O_3_C1s Scan	O-C=O_4_C1s Scan	Background_C1s Scan	Envelope_C1s Scan	Normalised_Residual_C1s Scan	Residual_C1s Scan
1188.86	297.817	1244.48	1244.48	1244.48	1244.48	1244.48	1244.48	1244.48	0	0
1189.06	297.617	1280.43	1280.43	1280.43	1280.43	1280.43	1280.43	1280.43	0	0
1189.26	297.417	1384.01	1384.01	1384.01	1384.01	1384.01	1384.01	1384.01	0	0
1189.46	297.217	1053.32	1053.32	1053.32	1053.32	1053.32	1053.32	1053.32	0	0
1189.66	297.017	1301.06	1301.06	1301.06	1301.06	1301.06	1301.06	1301.06	0	0
1189.86	296.817	1152.63	1152.63	1152.63	1152.63	1152.63	1152.63	1152.63	0	0
1190.06	296.617	1242.71	1242.71	1242.71	1242.71	1242.71	1242.71	1242.71	0	0
1190.26	296.417	1082.84	1082.84	1082.84	1082.84	1082.84	1082.84	1082.84	0	0
1190.46	296.217	1215.86	1215.86	1215.86	1215.86	1215.86	1215.86	1215.86	0	0
1190.66	296.017	822.298	822.298	822.298	822.298	822.298	822.298	822.298	0	0
1190.86	295.817	1112.78	1112.78	1112.78	1112.78	1112.78	1112.78	1112.78	0	0
1191.06	295.617	1009.4	1009.4	1009.4	1009.4	1009.4	1009.4	1009.4	0	0
1191.26	295.417	944.586	944.586	944.586	944.586	944.586	944.586	944.586	0	0
1191.46	295.217	975.184	975.184	975.184	975.184	975.184	975.184	975.184	0	0
1191.66	295.017	947.018	947.018	947.018	947.018	947.018	947.018	947.018	0	0
1191.86	294.817	855.006	855.006	855.006	855.006	855.006	855.006	855.006	0	0
1192.06	294.617	760.334	760.334	760.334	760.334	760.334	760.334	760.334	0	0
1192.26	294.417	772.584	772.584	772.584	772.584	772.584	772.584	772.584	0	0
1192.46	294.217	615.736	615.736	615.736	615.736	615.736	615.736	615.736	0	0
1192.66	294.017	652.874	652.874	652.874	652.874	652.874	652.874	652.874	0	0
1192.86	293.817	682.426	682.426	682.426	682.426	682.426	682.426	682.426	0	0
1193.06	293.617	475.94	475.94	475.94	475.94	475.94	475.94	475.94	0	0
1193.26	293.417	444.324	444.324	444.324	444.324	444.324	444.324	444.324	0	0
1193.46	293.217	729.862	729.862	729.862	729.862	729.862	729.862	729.862	0	0
1193.66	293.017	498.25	498.25	498.25	498.25	498.251	498.25	498.251	0	0
1193.86	292.817	492.278	492.278	492.278	492.278	492.282	492.278	492.282	0	0
1194.06	292.617	480.966	480.966	480.966	480.966	480.981	480.966	480.981	0	0
1194.26	292.417	413.836	413.836	413.836	413.836	413.884	413.836	413.884	0	0
1194.46	292.217	324.016	324.016	324.016	324.017	324.158	324.016	324.159	0	0
1194.66	292.017	522.494	522.494	522.494	522.496	522.891	522.494	522.893	0	0
1194.86	291.817	406.94	406.94	406.94	406.948	407.982	406.94	407.99	0	0
1195.06	291.617	459.272	459.272	459.272	459.301	461.844	459.272	461.873	0	0
1195.26	291.417	356.086	356.086	356.086	356.182	362.037	356.086	362.133	0	0
1195.46	291.217	401.152	401.152	401.152	401.453	414.058	401.152	414.358	0	0
1195.66	291.017	454.99	439.712	439.712	440.601	466.054	439.712	466.943	0.125305	0.59766
1195.86	290.817	476.738	439.699	439.699	442.166	489.968	439.699	492.435	0.160759	0.784874
1196.06	290.617	366.406	439.681	439.681	446.092	529.218	439.681	535.63	1.97681	8.46119
1196.26	290.417	530.63	439.66	439.662	455.322	588.187	439.66	603.852	0.710769	3.66108
1196.46	290.217	717.154	439.555	439.565	475.56	667.548	439.555	703.562	-0.11349	-0.679595
1196.66	290.017	891.912	439.383	439.418	516.91	760.85	439.383	838.412	-0.400571	-2.67501
1196.86	289.817	849.046	439.197	439.319	595.576	852.208	439.197	1008.71	1.22525	7.98314
1197.06	289.617	1268.77	438.852	439.249	734.988	918.079	438.852	1214.61	-0.340004	-2.70808
1197.26	289.417	1766.84	438.395	439.61	961.324	937.816	438.395	1461.96	-1.62184	-15.2438
1197.46	289.217	1845.07	437.88	441.385	1296.16	904.498	437.88	1766.28	-0.410138	-3.93932
1197.66	289.017	1706.78	437.297	446.759	1740.52	829.034	437.297	2141.72	2.35411	21.7471
1197.86	288.817	2599.68	436.573	460.513	2252.47	734.336	436.573	2574.17	-0.111868	-1.27541
1198.06	288.617	2845.16	435.66	492.827	2738.09	642.278	435.66	3001.88	0.656969	7.8358
1198.26	288.417	3553.46	434.385	562.297	3069.68	566.359	434.385	3329.57	-0.839834	-11.1945
1198.46	288.217	3800.6	433.079	701.227	3138.72	511.252	433.078	3485.05	-1.14455	-15.7777
1198.66	288.017	3573.22	431.819	959.355	2922.67	474.921	431.812	3493.33	-0.298838	-3.99439
1198.86	287.817	3082.74	430.73	1401.74	2494.05	452.883	430.688	3487.33	1.62943	20.2297
1199.06	287.617	3397.76	429.619	2094.38	1977.9	440.137	429.401	3653.83	0.982315	12.8036
1199.26	287.417	4069.28	429.078	3077.25	1490.46	432.918	428.051	4145.55	0.267346	3.81344
1199.46	287.217	4996.48	430.618	4314.75	1097.7	428.343	426.277	4992.58	-0.0123497	-0.195197
1199.66	287.017	6041.4	440.603	5642.75	817.696	424.905	424.079	6053.72	0.035439	0.615936
1199.86	286.817	7256.72	478.008	6774	636.601	421.654	421.343	7046.23	-0.552516	-10.5245
1200.06	286.617	7172.48	594.357	7376.26	528.48	418.609	418.5	7662.21	1.29302	24.4864
1200.26	286.417	7719.62	907.521	7247.56	468.226	415.685	415.649	7792.04	0.18432	3.62123
1200.46	286.217	8140.82	1649.83	6433.3	436.26	412.604	412.593	7694.21	-1.10682	-22.3305
1200.66	286.017	8342.62	3201.25	5194.93	419.611	409.626	409.623	7996.54	-0.84724	-17.3039
1200.86	285.817	9713.5	6026.95	3864.89	410.134	406.187	406.187	9489.6	-0.507991	-11.1951
1201.06	285.617	13032.3	10413.5	2694.17	402.855	401.385	401.384	12707.8	-0.635625	-16.2254
1201.26	285.417	16734.5	15925.5	1798.61	395.541	395.026	395.026	17329.6	1.02853	29.7515
1201.46	285.217	21923.4	21008.1	1186.85	387.096	386.927	386.927	21808.2	-0.174031	-5.7619
1201.66	285.017	23301.4	23442.8	802.926	377.643	377.591	377.591	23868.2	0.830292	28.3405
1201.86	284.817	22892	21925.1	579.722	368.331	368.316	368.316	22136.5	-1.11654	-37.7746
1202.06	284.617	17358.1	17271.8	459.54	360.893	360.889	360.889	17370.4	0.0209257	0.616474
1202.26	284.417	12379.4	11665.8	398.908	355.663	355.662	355.662	11709	-1.34724	-33.5182
1202.46	284.217	6465.52	6915.9	370.527	352.762	352.761	352.761	6933.66	1.30186	23.4072
1202.66	284.017	3645.98	3704.96	358.009	351.162	351.162	351.162	3711.81	0.243778	3.29145
1202.86	283.817	2143.64	1877.02	352.898	350.409	350.409	350.409	1879.51	-1.27565	-13.2067
1203.06	283.617	1344.16	973.547	350.738	349.89	349.89	349.89	974.395	-2.2552	-18.4882
1203.26	283.417	1038.44	578.763	349.901	349.631	349.631	349.631	579.033	-3.18781	-22.9704
1203.46	283.217	891.44	425.228	349.511	349.43	349.43	349.43	425.31	-3.49097	-23.3065
1203.66	283.017	605.694	371.909	349.354	349.331	349.331	349.331	371.932	-2.12389	-11.6881
1203.86	282.817	434.816	355.338	349.26	349.254	349.254	349.254	355.344	-0.852206	-3.97358
1204.06	282.617	708.076	350.619	349.141	349.139	349.139	349.139	350.621	-3.00377	-17.8728
1204.26	282.417	334.11	349.454	349.13	349.13	349.13	349.13	349.454	0.187708	0.767205
1204.46	282.217	330.828	349.158	349.095	349.094	349.094	349.094	349.158	0.225347	0.91651
1204.66	282.017	365.048	349.101	349.09	349.09	349.09	349.09	349.101	-0.186631	-0.797339
1204.86	281.817	386.01	349.072	349.071	349.071	349.071	349.071	349.072	-0.420391	-1.84688
1205.06	281.617	260.414	260.414	260.414	260.414	260.414	260.414	260.414	0	0
1205.26	281.417	295.876	295.876	295.876	295.876	295.876	295.876	295.876	0	0
1205.46	281.217	295.328	295.328	295.328	295.328	295.328	295.328	295.328	0	0
1205.66	281.017	256.096	256.096	256.096	256.096	256.096	256.096	256.096	0	0
1205.86	280.817	306.91	306.91	306.91	306.91	306.91	306.91	306.91	0	0
1206.06	280.617	336.804	336.804	336.804	336.804	336.804	336.804	336.804	0	0
1206.26	280.417	249.308	249.308	249.308	249.308	249.308	249.308	249.308	0	0
1206.46	280.217	231.294	231.294	231.294	231.294	231.294	231.294	231.294	0	0
1206.66	280.017	118.121	118.121	118.121	118.121	118.121	118.121	118.121	0	0
1206.86	279.817	188.893	188.893	188.893	188.893	188.893	188.893	188.893	0	0
1207.06	279.617	181.247	181.247	181.247	181.247	181.247	181.247	181.247	0	0
1207.26	279.417	145.172	145.172	145.172	145.172	145.172	145.172	145.172	0	0
1207.46	279.217	75.3376	75.3376	75.3376	75.3376	75.3376	75.3376	75.3376	0	0
1207.66	279.017	122.214	122.214	122.214	122.214	122.214	122.214	122.214	0	0
1207.86	278.817	228.884	228.884	228.884	228.884	228.884	228.884	228.884	0	0