File: XPS/XPS/241019_C-1.1.csv
C1s Scan
	Characteristic Energy eV	1486.68	Acquisition Time s	0.05
KE_C1s Scan	BE_C1s Scan	CPS_C1s Scan	C-C/C-H_1_C1s Scan	C-O_2_C1s Scan	C=O_3_C1s Scan	O-C=O_4_C1s Scan	Background_C1s Scan	Envelope_C1s Scan	Normalised_Residual_C1s Scan	Residual_C1s Scan
1188.99	297.69	2463.56	2463.56	2463.56	2463.56	2463.56	2463.56	2463.56	0	0
1189.19	297.49	2347.58	2347.58	2347.58	2347.58	2347.58	2347.58	2347.58	0	0
1189.39	297.29	2037.06	2037.06	2037.06	2037.06	2037.06	2037.06	2037.06	0	0
1189.59	297.09	2118.48	2118.48	2118.48	2118.48	2118.48	2118.48	2118.48	0	0
1189.79	296.89	2287.78	2287.78	2287.78	2287.78	2287.78	2287.78	2287.78	0	0
1189.99	296.69	2276.14	2276.14	2276.14	2276.14	2276.14	2276.14	2276.14	0	0
1190.19	296.49	1898.78	1898.78	1898.78	1898.78	1898.78	1898.78	1898.78	0	0
1190.39	296.29	2136.4	2136.4	2136.4	2136.4	2136.4	2136.4	2136.4	0	0
1190.59	296.09	2098.08	2098.08	2098.08	2098.08	2098.08	2098.08	2098.08	0	0
1190.79	295.89	1740.42	1740.42	1740.42	1740.42	1740.42	1740.42	1740.42	0	0
1190.99	295.69	1616.27	1616.27	1616.27	1616.27	1616.27	1616.27	1616.27	0	0
1191.19	295.49	1778.82	1778.82	1778.82	1778.82	1778.82	1778.82	1778.82	0	0
1191.39	295.29	1645.57	1645.57	1645.57	1645.57	1645.57	1645.57	1645.57	0	0
1191.59	295.09	1343.05	1343.05	1343.05	1343.05	1343.05	1343.05	1343.05	0	0
1191.79	294.89	1397.23	1397.23	1397.23	1397.23	1397.23	1397.23	1397.23	0	0
1191.99	294.69	1554.71	1554.71	1554.71	1554.71	1554.71	1554.71	1554.71	0	0
1192.19	294.49	1324.24	1324.24	1324.24	1324.24	1324.24	1324.24	1324.24	0	0
1192.39	294.29	961.536	961.536	961.536	961.536	961.536	961.536	961.536	0	0
1192.59	294.09	998.268	998.268	998.268	998.268	998.268	998.268	998.268	0	0
1192.79	293.89	826.786	826.786	826.786	826.786	826.786	826.786	826.786	0	0
1192.99	293.69	1114.45	1114.45	1114.45	1114.45	1114.45	1114.45	1114.45	0	0
1193.19	293.49	761.992	761.992	761.992	761.992	761.992	761.992	761.992	0	0
1193.39	293.29	833.414	833.414	833.414	833.414	833.414	833.414	833.414	0	0
1193.59	293.09	650.31	650.31	650.31	650.31	650.31	650.31	650.31	0	0
1193.79	292.89	852.648	852.648	852.648	852.648	852.648	852.648	852.648	0	0
1193.99	292.69	619.028	619.028	619.028	619.028	619.028	619.028	619.028	0	0
1194.19	292.49	703.808	703.808	703.808	703.808	703.81	703.808	703.81	0	0
1194.39	292.29	522.338	522.338	522.338	522.338	522.346	522.338	522.346	0	0
1194.59	292.09	525.426	525.426	525.426	525.426	525.456	525.426	525.456	0	0
1194.79	291.89	620.822	620.822	620.822	620.822	620.925	620.822	620.925	0	0
1194.99	291.69	568.406	568.406	568.406	568.406	568.734	568.406	568.734	0	0
1195.19	291.49	428.964	428.964	428.964	428.964	429.949	428.964	429.949	0	0
1195.39	291.29	542.718	542.718	542.718	542.719	545.461	542.718	545.462	0	0
1195.59	291.09	559.024	600.536	600.536	600.54	607.73	600.536	607.734	0.460665	2.43549
1195.79	290.89	427.36	600.498	600.498	600.51	618.019	600.498	618.032	2.06241	9.53361
1195.99	290.69	492.79	600.457	600.457	600.5	640.545	600.457	640.588	1.48876	7.38992
1196.19	290.49	474.59	600.405	600.405	600.543	685.654	600.405	685.793	2.16783	10.5601
1196.39	290.29	560.352	600.396	600.396	600.806	769.974	600.396	770.384	1.98399	10.5016
1196.59	290.09	683.618	600.363	600.364	601.507	913.193	600.363	914.337	1.97316	11.536
1196.79	289.89	856.91	600.284	600.287	603.246	1135.76	600.284	1138.73	2.15271	14.0909
1196.99	289.69	1423.68	600.037	600.05	607.251	1443.01	600.037	1450.24	0.157398	1.32798
1197.19	289.49	2048.16	599.581	599.627	615.918	1812.59	599.581	1828.97	-1.08297	-10.9593
1197.39	289.29	2346.22	599.059	599.222	633.722	2178.76	599.059	2213.58	-0.612306	-6.6319
1197.59	289.09	2568.68	598.408	598.946	666.76	2442.25	598.408	2511.14	-0.253846	-2.8768
1197.79	288.89	3029.62	597.612	599.266	723.17	2515.38	597.612	2642.6	-1.57228	-19.3512
1197.99	288.69	2478.5	596.944	601.702	810.15	2368.71	596.944	2586.67	0.485852	5.40858
1198.19	288.49	2519.74	596.324	609.108	929.786	2057.5	596.324	2403.74	-0.51672	-5.79987
1198.39	288.29	2212	595.762	627.893	1071.69	1679.27	595.762	2187.33	-0.117307	-1.23368
1198.59	288.09	1754.24	595.329	670.725	1209.57	1324.77	595.327	2014.42	1.389	13.0086
1198.79	287.89	1891.52	594.9	760.276	1305.43	1045.08	594.886	1921.03	0.151734	1.47561
1198.99	287.69	1736.86	594.546	932.608	1325.79	850.607	594.456	1920.19	0.983632	9.16642
1199.19	287.49	2347.48	594.42	1238.03	1263.38	729.273	593.894	2043.42	-1.40329	-15.2032
1199.39	287.29	2233.44	595.997	1731.09	1140.19	659.782	593.304	2347.14	0.537992	5.68522
1199.59	287.09	3003.48	604.771	2448.92	994.666	623.035	592.52	2893.83	-0.447399	-5.48267
1199.79	286.89	4222.96	640.903	3367.34	860.146	604.422	591.374	3698.68	-1.804	-26.2138
1199.99	286.69	4324.92	768.192	4362.49	754.659	595.27	590.041	4710.49	1.31098	19.2784
1200.19	286.49	5986.16	1161.05	5202.7	681.459	590.252	588.3	5870.56	-0.334081	-5.77978
1200.39	286.29	6586.32	2221.86	5623.34	635.213	587.026	586.342	7308.41	1.98954	36.1043
1200.59	286.09	9859.26	4723.98	5472.92	607.337	583.662	583.44	9637.58	-0.499212	-11.0839
1200.79	285.89	14528.6	9832	4802.83	589.978	579.16	579.092	14066.7	-0.856894	-23.0953
1200.99	285.69	22611.4	18670.5	3842.48	576.911	572.292	572.273	21945.4	-0.990384	-33.3006
1201.19	285.49	32933.4	31104.2	2851.72	563.788	561.95	561.945	33395.8	0.569758	23.1203
1201.39	285.29	45744.4	44102.4	2010.54	547.956	547.271	547.269	45566.4	-0.186112	-8.90077
1201.59	285.09	51537	51962.4	1390.98	530.051	529.813	529.812	52823.8	1.26744	64.3386
1201.79	284.89	50934	50180.1	980.624	512.044	511.966	511.966	50648.9	-0.282506	-14.2566
1201.99	284.69	41163	39818.5	734.053	496.575	496.552	496.552	40056	-1.22004	-55.3494
1202.19	284.49	25440.4	26436.2	598.584	486.668	486.662	486.662	26548.1	1.55289	55.3843
1202.39	284.29	14515	15067.4	530.29	480.911	480.91	480.91	15116.8	1.11695	30.0903
1202.59	284.09	7398.06	7587.9	498.223	477.944	477.944	477.944	7608.18	0.546257	10.5061
1202.79	283.89	4425.24	3517.98	484.167	476.348	476.348	476.348	3525.8	-3.02336	-44.9721
1202.99	283.69	2470.34	1627.17	478.315	475.513	475.513	475.513	1629.98	-3.78072	-42.0182
1203.19	283.49	1629.52	863.029	476.014	475.069	475.069	475.069	863.973	-4.24059	-38.2773
1203.39	283.29	1264.16	591	475.063	474.768	474.768	474.768	591.295	-4.23168	-33.6433
1203.59	283.09	992.288	505.465	474.588	474.501	474.501	474.501	505.552	-3.45509	-24.3368
1203.79	282.89	759.206	481.666	474.363	474.339	474.339	474.339	481.69	-2.25213	-13.8758
1203.99	282.69	835.402	475.761	474.221	474.214	474.214	474.214	475.767	-2.78227	-17.9817
1204.19	282.49	825.382	474.386	474.097	474.095	474.095	474.095	474.388	-2.73185	-17.5497
1204.39	282.29	736.25	474.041	473.993	473.992	473.992	473.992	474.041	-2.16082	-13.1104
1204.59	282.09	543.646	473.956	473.949	473.948	473.948	473.948	473.956	-0.668342	-3.48451
1204.79	281.89	515.116	473.92	473.919	473.919	473.919	473.919	473.92	-0.405872	-2.05981
1204.99	281.69	533.566	473.904	473.904	473.904	473.904	473.904	473.904	-0.577546	-2.98309
1205.19	281.49	403.078	473.885	473.885	473.885	473.885	473.885	473.885	0.788613	3.54033
1205.39	281.29	457.058	457.058	457.058	457.058	457.058	457.058	457.058	0	0
1205.59	281.09	344.556	344.556	344.556	344.556	344.556	344.556	344.556	0	0
1205.79	280.89	502.968	502.968	502.968	502.968	502.968	502.968	502.968	0	0
1205.99	280.69	333.978	333.978	333.978	333.978	333.978	333.978	333.978	0	0
1206.19	280.49	372.924	372.924	372.924	372.924	372.924	372.924	372.924	0	0
1206.39	280.29	240.186	240.186	240.186	240.186	240.186	240.186	240.186	0	0
1206.59	280.09	308.6	308.6	308.6	308.6	308.6	308.6	308.6	0	0
1206.79	279.89	255.46	255.46	255.46	255.46	255.46	255.46	255.46	0	0
1206.99	279.69	205.224	205.224	205.224	205.224	205.224	205.224	205.224	0	0
1207.19	279.49	435.968	435.968	435.968	435.968	435.968	435.968	435.968	0	0
1207.39	279.29	247.048	247.048	247.048	247.048	247.048	247.048	247.048	0	0
1207.59	279.09	219.136	219.136	219.136	219.136	219.136	219.136	219.136	0	0
1207.79	278.89	306.244	306.244	306.244	306.244	306.244	306.244	306.244	0	0
1207.99	278.69	144.464	144.464	144.464	144.464	144.464	144.464	144.464	0	0