File: XPS/XPS/250418_C-2.2.csv
C1s Scan
	Characteristic Energy eV	1486.68	Acquisition Time s	0.05
KE_C1s Scan	BE_C1s Scan	CPS_C1s Scan	C-C/C-H_1_C1s Scan	C-O_2_C1s Scan	C=O_3_C1s Scan	O-C=O_4_C1s Scan	Background_C1s Scan	Envelope_C1s Scan	Normalised_Residual_C1s Scan	Residual_C1s Scan
1189.31	297.37	3468.42	3468.42	3468.42	3468.42	3468.42	3468.42	3468.42	0	0
1189.51	297.17	3461.32	3461.32	3461.32	3461.32	3461.32	3461.32	3461.32	0	0
1189.71	296.97	3510.48	3510.48	3510.48	3510.48	3510.48	3510.48	3510.48	0	0
1189.91	296.77	3778.04	3778.04	3778.04	3778.04	3778.04	3778.04	3778.04	0	0
1190.11	296.57	3351.14	3351.14	3351.14	3351.14	3351.14	3351.14	3351.14	0	0
1190.31	296.37	3535.52	3535.52	3535.52	3535.52	3535.52	3535.52	3535.52	0	0
1190.51	296.17	3577.76	3577.76	3577.76	3577.76	3577.76	3577.76	3577.76	0	0
1190.71	295.97	3500.74	3500.74	3500.74	3500.74	3500.74	3500.74	3500.74	0	0
1190.91	295.77	3261.34	3261.34	3261.34	3261.34	3261.34	3261.34	3261.34	0	0
1191.11	295.57	4097.8	4097.8	4097.8	4097.8	4097.8	4097.8	4097.8	0	0
1191.31	295.37	3745.42	3745.42	3745.42	3745.42	3745.42	3745.42	3745.42	0	0
1191.51	295.17	3474.46	3474.46	3474.46	3474.46	3474.46	3474.46	3474.46	0	0
1191.71	294.97	3466.9	3466.9	3466.9	3466.9	3466.9	3466.9	3466.9	0	0
1191.91	294.77	3227.98	3227.98	3227.98	3227.98	3227.98	3227.98	3227.98	0	0
1192.11	294.57	3279.02	3279.02	3279.02	3279.02	3279.02	3279.02	3279.02	0	0
1192.31	294.37	3378.32	3378.32	3378.32	3378.32	3378.32	3378.32	3378.32	0	0
1192.51	294.17	3196.58	3196.58	3196.58	3196.58	3196.58	3196.58	3196.58	0	0
1192.71	293.97	3008.92	3008.92	3008.92	3008.92	3008.92	3008.92	3008.92	0	0
1192.91	293.77	2930.48	2930.48	2930.48	2930.48	2930.48	2930.48	2930.48	0	0
1193.11	293.57	3145.16	3145.16	3145.16	3145.16	3145.16	3145.16	3145.16	0	0
1193.31	293.37	3027.28	3027.28	3027.28	3027.28	3027.28	3027.28	3027.28	0	0
1193.51	293.17	3172.82	3172.82	3172.82	3172.82	3172.82	3172.82	3172.82	0	0
1193.71	292.97	2950.72	2950.72	2950.72	2950.72	2950.72	2950.72	2950.72	0	0
1193.91	292.77	2964.8	2964.8	2964.8	2964.8	2964.8	2964.8	2964.8	0	0
1194.11	292.57	3231.84	3231.84	3231.84	3231.84	3231.84	3231.84	3231.84	0	0
1194.31	292.37	2896.22	2896.22	2896.22	2896.22	2896.22	2896.22	2896.22	0	0
1194.51	292.17	3262.24	3262.24	3262.24	3262.24	3262.24	3262.24	3262.24	0	0
1194.71	291.97	3134.46	3134.46	3134.46	3134.46	3134.47	3134.46	3134.47	0	0
1194.91	291.77	3151.44	3151.44	3151.44	3151.44	3151.5	3151.44	3151.5	0	0
1195.11	291.57	2824.08	2824.08	2824.08	2824.08	2824.29	2824.08	2824.29	0	0
1195.31	291.37	2869.4	2869.4	2869.4	2869.4	2870.13	2869.4	2870.13	0	0
1195.51	291.17	2750.64	2750.64	2750.64	2750.64	2752.97	2750.64	2752.97	0	0
1195.71	290.97	2856.96	2946.2	2946.2	2946.21	2953.08	2946.2	2953.08	0.402114	4.80602
1195.91	290.77	3131.5	2946.07	2946.07	2946.07	2964.85	2946.07	2964.85	-0.665891	-8.33229
1196.11	290.57	3099.94	2945.87	2945.87	2945.89	2993.31	2945.87	2993.32	-0.428193	-5.3309
1196.31	290.37	2982.3	2945.76	2945.76	2945.8	3056.47	2945.76	3056.51	0.303841	3.71028
1196.51	290.17	2988.36	2945.6	2945.6	2945.73	3184.01	2945.6	3184.14	0.800839	9.78919
1196.71	289.97	3803.54	2945.05	2945.05	2945.46	3417.75	2945.05	3418.16	-1.39727	-19.269
1196.91	289.77	3706.84	2944.54	2944.54	2945.73	3803.75	2944.54	3804.95	0.360319	4.90539
1197.11	289.57	4681.52	2943.55	2943.57	2946.73	4366.07	2943.55	4369.28	-1.02042	-15.612
1197.31	289.37	5042.42	2942.15	2942.23	2950.03	5067.72	2942.15	5075.68	0.104748	1.66322
1197.51	289.17	5682.2	2940.27	2940.58	2958.29	5773.93	2940.27	5792.26	0.326472	5.50287
1197.71	288.97	6652.72	2937.35	2938.39	2975.39	6268.01	2937.35	6307.1	-0.947514	-17.2811
1197.91	288.77	6610.86	2934.62	2937.92	3008.51	6358.59	2934.62	6435.79	-0.48147	-8.75353
1198.11	288.57	6383.08	2932.01	2941.67	3063.37	6006.17	2932.01	6147.19	-0.660206	-11.7945
1198.31	288.37	5330.02	2929.84	2955.91	3142.03	5354.46	2929.83	5592.75	0.804695	13.1365
1198.51	288.17	4869.9	2928.23	2993.29	3236.62	4625.97	2928.16	4999.61	0.415636	6.48571
1198.71	287.97	4391.64	2927	3077.02	3325.53	3994.67	2926.73	4544.03	0.514184	7.61933
1198.91	287.77	4156.36	2926.52	3245.52	3379.1	3535.09	2925.5	4309.72	0.531924	7.66816
1199.11	287.57	4462.24	2928.19	3551.69	3375.37	3242.74	2924.58	4324.27	-0.46185	-6.89863
1199.31	287.37	4735.54	2934.94	4049.05	3314.68	3075.72	2923.11	4605.06	-0.423965	-6.52378
1199.51	287.17	5317.92	2957.34	4761.2	3220.93	2989.08	2921.52	5163.99	-0.47198	-7.69626
1199.71	286.97	6109.68	3019.54	5627.76	3123.12	2946.92	2919.27	5959.53	-0.429539	-7.50752
1199.91	286.77	6863.56	3175.83	6466.94	3041.17	2926.59	2916.12	6862.16	-0.00377803	-0.0699882
1200.11	286.57	7504.28	3534.71	7011.66	2982.36	2916.25	2912.58	7707.23	0.523862	10.1474
1200.31	286.37	8923.38	4283.54	7044.83	2944.12	2909.64	2908.45	8456.78	-1.10451	-23.3302
1200.51	286.17	8815.24	5702.09	6550.48	2920.31	2903.88	2903.53	9366.18	1.31213	27.5472
1200.71	285.97	10867.3	8122.59	5725.49	2904.76	2897.58	2897.48	10958	0.1946	4.53615
1200.91	285.77	13858.9	11786.4	4839.12	2892.13	2889.23	2889.21	13739.3	-0.227156	-5.97961
1201.11	285.57	18043	16578.1	4088	2879.65	2878.57	2878.57	17788.6	-0.423439	-12.7183
1201.31	285.37	24414	21728.9	3544.82	2863.72	2863.35	2863.35	22410.7	-2.86684	-100.163
1201.51	285.17	25750.2	25807	3197.53	2846.07	2845.95	2845.95	26158.7	0.569213	20.4244
1201.71	284.97	27914.4	27290.5	2993.14	2826.24	2826.2	2826.2	27457.5	-0.611483	-22.8446
1201.91	284.77	24607.6	25545.5	2881.38	2808.26	2808.25	2808.25	25618.6	1.44118	50.552
1202.11	284.57	22221.2	21298.4	2821.83	2792.23	2792.23	2792.23	21328	-1.33983	-44.6599
1202.31	284.37	16421.7	16100.9	2791.81	2780.73	2780.73	2780.73	16112	-0.540404	-15.4851
1202.51	284.17	11082.9	11356	2776.99	2773.15	2773.15	2773.15	11359.9	0.588208	13.8466
1202.71	283.97	8297.46	7773.8	2769.47	2768.25	2768.25	2768.25	7775.03	-1.28245	-26.1216
1202.91	283.77	6068.44	5429.74	2765.7	2765.34	2765.34	2765.34	5430.1	-1.8323	-31.9169
1203.11	283.57	4075.12	4065.89	2764.16	2764.06	2764.06	2764.06	4065.99	-0.0319722	-0.456381
1203.31	283.37	3451.4	3349.25	2763.32	2763.29	2763.29	2763.29	3349.27	-0.388717	-5.10642
1203.51	283.17	3008.58	3006.28	2762.84	2762.83	2762.83	2762.83	3006.29	-0.00934593	-0.114627
1203.71	282.97	3763.88	2855.55	2762.09	2762.09	2762.09	2762.09	2855.55	-3.31064	-45.4167
1203.91	282.77	2784.02	2795.22	2762.06	2762.06	2762.06	2762.06	2795.22	0.0474679	0.560042
1204.11	282.57	3188.58	2772.71	2761.84	2761.84	2761.84	2761.84	2772.71	-1.64679	-20.7933
1204.31	282.37	3033.2	2765	2761.7	2761.7	2761.7	2761.7	2765	-1.08892	-13.41
1204.51	282.17	2774.76	2762.42	2761.49	2761.49	2761.49	2761.49	2762.42	-0.0524011	-0.617218
1204.71	281.97	2480.78	2761.5	2761.26	2761.26	2761.26	2761.26	2761.5	1.26027	14.0359
1204.91	281.77	2850.36	2761.27	2761.22	2761.22	2761.22	2761.22	2761.27	-0.37312	-4.45434
1205.11	281.57	2828.26	2761.15	2761.14	2761.14	2761.14	2761.14	2761.15	-0.28216	-3.35537
1205.31	281.37	2424	2424	2424	2424	2424	2424	2424	0	0
1205.51	281.17	2406.6	2406.6	2406.6	2406.6	2406.6	2406.6	2406.6	0	0
1205.71	280.97	2729.1	2729.1	2729.1	2729.1	2729.1	2729.1	2729.1	0	0
1205.91	280.77	2974.28	2974.28	2974.28	2974.28	2974.28	2974.28	2974.28	0	0
1206.11	280.57	2681.04	2681.04	2681.04	2681.04	2681.04	2681.04	2681.04	0	0
1206.31	280.37	2889.74	2889.74	2889.74	2889.74	2889.74	2889.74	2889.74	0	0
1206.51	280.17	2767.56	2767.56	2767.56	2767.56	2767.56	2767.56	2767.56	0	0
1206.71	279.97	2758.86	2758.86	2758.86	2758.86	2758.86	2758.86	2758.86	0	0
1206.91	279.77	3048.44	3048.44	3048.44	3048.44	3048.44	3048.44	3048.44	0	0
1207.11	279.57	3084.64	3084.64	3084.64	3084.64	3084.64	3084.64	3084.64	0	0
1207.31	279.37	2614.46	2614.46	2614.46	2614.46	2614.46	2614.46	2614.46	0	0
1207.51	279.17	2501.52	2501.52	2501.52	2501.52	2501.52	2501.52	2501.52	0	0
1207.71	278.97	2404.74	2404.74	2404.74	2404.74	2404.74	2404.74	2404.74	0	0
1207.91	278.77	2783.4	2783.4	2783.4	2783.4	2783.4	2783.4	2783.4	0	0
1208.11	278.57	2793.5	2793.5	2793.5	2793.5	2793.5	2793.5	2793.5	0	0
1208.31	278.37	2489.78	2489.78	2489.78	2489.78	2489.78	2489.78	2489.78	0	0