File: XPS/XPS/250418_195-3.1.csv
C1s Scan
	Characteristic Energy eV	1486.68	Acquisition Time s	0.05
KE_C1s Scan	BE_C1s Scan	CPS_C1s Scan	C-C/C-H_1_C1s Scan	C-O_2_C1s Scan	C=O_3_C1s Scan	O-C=O_4_C1s Scan	Background_C1s Scan	Envelope_C1s Scan	Normalised_Residual_C1s Scan	Residual_C1s Scan
1189.43	297.25	1676.32	1676.32	1676.32	1676.32	1676.32	1676.32	1676.32	0	0
1189.63	297.05	1376.92	1376.92	1376.92	1376.92	1376.92	1376.92	1376.92	0	0
1189.83	296.85	1659.4	1659.4	1659.4	1659.4	1659.4	1659.4	1659.4	0	0
1190.03	296.65	1352.5	1352.5	1352.5	1352.5	1352.5	1352.5	1352.5	0	0
1190.23	296.45	1295.27	1295.27	1295.27	1295.27	1295.27	1295.27	1295.27	0	0
1190.43	296.25	1345.93	1345.93	1345.93	1345.93	1345.93	1345.93	1345.93	0	0
1190.63	296.05	1797.34	1797.34	1797.34	1797.34	1797.34	1797.34	1797.34	0	0
1190.83	295.85	1569.09	1569.09	1569.09	1569.09	1569.09	1569.09	1569.09	0	0
1191.03	295.65	1234.88	1234.88	1234.88	1234.88	1234.88	1234.88	1234.88	0	0
1191.23	295.45	1448.27	1448.27	1448.27	1448.27	1448.27	1448.27	1448.27	0	0
1191.43	295.25	1565.94	1565.94	1565.94	1565.94	1565.94	1565.94	1565.94	0	0
1191.63	295.05	1726.58	1726.58	1726.58	1726.58	1726.58	1726.58	1726.58	0	0
1191.83	294.85	1660.86	1660.86	1660.86	1660.86	1660.86	1660.86	1660.86	0	0
1192.03	294.65	1221.79	1221.79	1221.79	1221.79	1221.79	1221.79	1221.79	0	0
1192.23	294.45	1297.6	1297.6	1297.6	1297.6	1297.6	1297.6	1297.6	0	0
1192.43	294.25	1356.78	1356.78	1356.78	1356.78	1356.78	1356.78	1356.78	0	0
1192.63	294.05	1294.88	1294.88	1294.88	1294.88	1294.88	1294.88	1294.88	0	0
1192.83	293.85	1422.16	1422.16	1422.16	1422.16	1422.16	1422.16	1422.16	0	0
1193.03	293.65	1271.1	1271.1	1271.1	1271.1	1271.1	1271.1	1271.1	0	0
1193.23	293.45	1312.76	1312.76	1312.76	1312.76	1312.76	1312.76	1312.76	0	0
1193.43	293.25	1128.7	1128.7	1128.7	1128.7	1128.7	1128.7	1128.7	0	0
1193.63	293.05	1274.18	1274.18	1274.18	1274.18	1274.18	1274.18	1274.18	0	0
1193.83	292.85	1194.21	1194.21	1194.21	1194.21	1194.21	1194.21	1194.21	0	0
1194.03	292.65	1230.39	1230.39	1230.39	1230.39	1230.39	1230.39	1230.39	0	0
1194.23	292.45	1354.45	1354.45	1354.45	1354.45	1354.45	1354.45	1354.45	0	0
1194.43	292.25	1418.35	1418.35	1418.35	1418.35	1418.35	1418.35	1418.35	0	0
1194.63	292.05	1394.62	1394.62	1394.62	1394.62	1394.63	1394.62	1394.63	0	0
1194.83	291.85	1450.83	1450.83	1450.83	1450.83	1450.85	1450.83	1450.85	0	0
1195.03	291.65	1168.82	1289.92	1289.92	1289.92	1289.97	1289.92	1289.97	0.792327	6.05709
1195.23	291.45	1227.62	1289.8	1289.8	1289.8	1289.98	1289.8	1289.98	0.397946	3.11775
1195.43	291.25	1352.97	1289.72	1289.72	1289.72	1290.28	1289.72	1290.28	-0.381086	-3.13439
1195.63	291.05	1037.44	1289.57	1289.57	1289.57	1291.23	1289.57	1291.23	1.7619	12.6896
1195.83	290.85	1594.85	1289.32	1289.32	1289.32	1293.89	1289.32	1293.89	-1.68513	-15.048
1196.03	290.65	1323.14	1289.24	1289.24	1289.25	1300.89	1289.24	1300.9	-0.136719	-1.11203
1196.23	290.45	1520.01	1289.13	1289.13	1289.15	1316.69	1289.13	1316.72	-1.16599	-10.1649
1196.43	290.25	1464.89	1288.99	1288.99	1289.07	1349.29	1288.99	1349.37	-0.674885	-5.77587
1196.63	290.05	1407.43	1288.83	1288.83	1289.1	1410.59	1288.83	1410.85	0.0203881	0.171031
1196.83	289.85	1571.94	1288.57	1288.57	1289.29	1514.75	1288.57	1515.48	-0.318437	-2.8231
1197.03	289.65	1571.65	1288.42	1288.42	1290.29	1672.94	1288.42	1674.82	0.581867	5.15807
1197.23	289.45	2169.88	1287.87	1287.89	1292.33	1881.56	1287.87	1886.04	-1.36252	-14.1921
1197.43	289.25	2081.96	1287.18	1287.25	1297.02	2110.58	1287.18	2120.49	0.188811	1.92641
1197.63	289.05	2247.82	1286.22	1286.46	1306.29	2300.39	1286.22	2320.71	0.343772	3.64448
1197.83	288.85	2529.54	1285.1	1285.88	1322.79	2384.12	1285.1	2422.59	-0.475491	-5.34746
1198.03	288.65	2356.12	1284.08	1286.4	1348.87	2327.48	1284.08	2394.58	0.177185	1.92314
1198.23	288.45	2211.9	1283.04	1289.43	1384.26	2153.18	1283.04	2260.79	0.23246	2.44464
1198.43	288.25	2207.02	1282.21	1298.58	1424.49	1925.04	1282.2	2083.73	-0.58683	-6.16453
1198.63	288.05	1626.63	1281.79	1320.6	1459.65	1707.5	1281.75	1924.28	1.65025	14.8826
1198.83	287.85	1714.34	1281.34	1366.4	1476.99	1536.64	1281.18	1817.82	0.558851	5.17404
1199.03	287.65	1757.51	1281.25	1453.23	1469.48	1420.67	1280.64	1782.71	0.134421	1.26009
1199.23	287.45	1855.78	1282.11	1601.75	1439.9	1350.54	1280.01	1834.27	-0.111682	-1.0758
1199.43	287.25	1559.5	1286.22	1829.13	1399.33	1312.29	1279.53	1988.4	2.42855	21.445
1199.63	287.05	2115.54	1298.37	2130.84	1358.93	1292.72	1278.61	2245.03	0.629523	6.47452
1199.83	286.85	2296.18	1331.67	2465.28	1326.46	1283.34	1277.71	2573.6	1.29458	13.8712
1200.03	286.65	3353.7	1412.26	2746.57	1302.93	1278	1275.92	2912	-1.7055	-22.0851
1200.23	286.45	2986.78	1592.24	2877.1	1287.83	1274.8	1274.09	3209.71	0.912128	11.1466
1200.43	286.25	3793.52	1956.68	2802.46	1278.43	1272.2	1271.98	3493.83	-1.08801	-14.9844
1200.63	286.05	3710.88	2625.27	2552.64	1272.59	1269.86	1269.79	3910.99	0.734534	10.0054
1200.83	285.85	4585.5	3724.57	2219.46	1267.94	1266.84	1266.82	4678.35	0.306613	4.64268
1201.03	285.65	5419.32	5317.26	1896.71	1263.38	1262.96	1262.96	5951.43	1.61628	26.6057
1201.23	285.45	8329.64	7284.22	1638.43	1256.86	1256.71	1256.71	7666.09	-1.62573	-33.1777
1201.43	285.25	9959.78	9232.31	1458.82	1248.95	1248.9	1248.9	9442.28	-1.15951	-25.8752
1201.63	285.05	10347.6	10552.6	1346.4	1240.26	1240.25	1240.25	10658.8	0.683915	15.5564
1201.83	284.85	10264.1	10722.1	1281.03	1231.45	1231.45	1231.45	10771.7	1.12013	25.3756
1202.03	284.65	9505.88	9664.47	1244.98	1223.57	1223.57	1223.57	9685.89	0.412832	9.00026
1202.23	284.45	7903.64	7808.66	1225.36	1216.8	1216.8	1216.8	7817.22	-0.21736	-4.32094
1202.43	284.25	5825.28	5782.4	1214.92	1211.76	1211.76	1211.76	5785.57	-0.116335	-1.98542
1202.63	284.05	4267.74	4056.36	1209.44	1208.36	1208.36	1208.36	4057.45	-0.719803	-10.5147
1202.83	283.85	2966.84	2817.21	1206.52	1206.17	1206.17	1206.17	2817.56	-0.612844	-7.46418
1203.03	283.65	2429.92	2038.37	1204.95	1204.85	1204.85	1204.85	2038.47	-1.77569	-19.5726
1203.23	283.45	2082.78	1600.28	1203.93	1203.9	1203.9	1203.9	1600.31	-2.36392	-24.1235
1203.43	283.25	1840.94	1377.1	1203.33	1203.32	1203.32	1203.32	1377.11	-2.41726	-23.1914
1203.63	283.05	1358.72	1273.48	1203.13	1203.12	1203.12	1203.12	1273.48	-0.517082	-4.26196
1203.83	282.85	1341.33	1229.26	1202.94	1202.93	1202.93	1202.93	1229.26	-0.684232	-5.60345
1204.03	282.65	1422.27	1211.84	1202.74	1202.74	1202.74	1202.74	1211.84	-1.24767	-10.5215
1204.23	282.45	1169.14	1205.52	1202.61	1202.61	1202.61	1202.61	1205.52	0.237914	1.81902
1204.43	282.25	981.894	1203.35	1202.49	1202.49	1202.49	1202.49	1203.35	1.58028	11.0727
1204.63	282.05	1042.35	1202.58	1202.35	1202.35	1202.35	1202.35	1202.58	1.10975	8.0116
1204.83	281.85	1182.38	1202.34	1202.28	1202.28	1202.28	1202.28	1202.34	0.129777	0.997842
1205.03	281.65	1262.47	1202.23	1202.22	1202.22	1202.22	1202.22	1202.23	-0.379099	-3.01195
1205.23	281.45	1327.47	1202.15	1202.15	1202.15	1202.15	1202.15	1202.15	-0.769092	-6.26578
1205.43	281.25	941.3	1201.91	1201.91	1201.91	1201.91	1201.91	1201.91	1.89939	13.0306
1205.63	281.05	1103.69	1201.78	1201.78	1201.78	1201.78	1201.78	1201.78	0.660243	4.9047
1205.83	280.85	1084.41	1201.64	1201.64	1201.64	1201.64	1201.64	1201.64	0.796025	5.86151
1206.03	280.65	881.592	1201.37	1201.37	1201.37	1201.37	1201.37	1201.37	2.40823	15.9888
1206.23	280.45	1474.36	1474.36	1474.36	1474.36	1474.36	1474.36	1474.36	0	0
1206.43	280.25	1285.45	1285.45	1285.45	1285.45	1285.45	1285.45	1285.45	0	0
1206.63	280.05	1276.12	1276.12	1276.12	1276.12	1276.12	1276.12	1276.12	0	0
1206.83	279.85	1104.65	1104.65	1104.65	1104.65	1104.65	1104.65	1104.65	0	0
1207.03	279.65	1153.63	1153.63	1153.63	1153.63	1153.63	1153.63	1153.63	0	0
1207.23	279.45	1102.86	1102.86	1102.86	1102.86	1102.86	1102.86	1102.86	0	0
1207.43	279.25	1045.71	1045.71	1045.71	1045.71	1045.71	1045.71	1045.71	0	0
1207.63	279.05	1158.46	1158.46	1158.46	1158.46	1158.46	1158.46	1158.46	0	0
1207.83	278.85	1079.59	1079.59	1079.59	1079.59	1079.59	1079.59	1079.59	0	0
1208.03	278.65	1119.24	1119.24	1119.24	1119.24	1119.24	1119.24	1119.24	0	0
1208.23	278.45	903.172	903.172	903.172	903.172	903.172	903.172	903.172	0	0
1208.43	278.25	1067.97	1067.97	1067.97	1067.97	1067.97	1067.97	1067.97	0	0