File: XPS/XPS/250418_191x195-1.1.csv
C1s Scan
	Characteristic Energy eV	1486.68	Acquisition Time s	0.05
KE_C1s Scan	BE_C1s Scan	CPS_C1s Scan	C-C/C-H_1_C1s Scan	C-O_2_C1s Scan	C=O_3_C1s Scan	O-C=O_4_C1s Scan	Background_C1s Scan	Envelope_C1s Scan	Normalised_Residual_C1s Scan	Residual_C1s Scan
1189.44	297.241	3026.82	3026.82	3026.82	3026.82	3026.82	3026.82	3026.82	0	0
1189.64	297.041	3172.92	3172.92	3172.92	3172.92	3172.92	3172.92	3172.92	0	0
1189.84	296.841	3082.56	3082.56	3082.56	3082.56	3082.56	3082.56	3082.56	0	0
1190.04	296.641	3180.28	3180.28	3180.28	3180.28	3180.28	3180.28	3180.28	0	0
1190.24	296.441	2933.44	2933.44	2933.44	2933.44	2933.44	2933.44	2933.44	0	0
1190.44	296.241	3074.5	3074.5	3074.5	3074.5	3074.5	3074.5	3074.5	0	0
1190.64	296.041	3267.64	3267.64	3267.64	3267.64	3267.64	3267.64	3267.64	0	0
1190.84	295.841	3211.76	3211.76	3211.76	3211.76	3211.76	3211.76	3211.76	0	0
1191.04	295.641	2953.98	2953.98	2953.98	2953.98	2953.98	2953.98	2953.98	0	0
1191.24	295.441	3019.58	3019.58	3019.58	3019.58	3019.58	3019.58	3019.58	0	0
1191.44	295.241	2926.72	2926.72	2926.72	2926.72	2926.72	2926.72	2926.72	0	0
1191.64	295.041	2477.9	2477.9	2477.9	2477.9	2477.9	2477.9	2477.9	0	0
1191.84	294.841	3481.98	3481.98	3481.98	3481.98	3481.98	3481.98	3481.98	0	0
1192.04	294.641	2663.92	2663.92	2663.92	2663.92	2663.92	2663.92	2663.92	0	0
1192.24	294.441	2706.02	2706.02	2706.02	2706.02	2706.02	2706.02	2706.02	0	0
1192.44	294.241	2758.56	2758.56	2758.56	2758.56	2758.56	2758.56	2758.56	0	0
1192.64	294.041	3121.62	3121.62	3121.62	3121.62	3121.62	3121.62	3121.62	0	0
1192.84	293.841	2831.54	2831.54	2831.54	2831.54	2831.54	2831.54	2831.54	0	0
1193.04	293.641	2553.24	2553.24	2553.24	2553.24	2553.24	2553.24	2553.24	0	0
1193.24	293.441	2420.12	2420.12	2420.12	2420.12	2420.12	2420.12	2420.12	0	0
1193.44	293.241	2891.96	2891.96	2891.96	2891.96	2891.96	2891.96	2891.96	0	0
1193.64	293.041	2901.36	2901.36	2901.36	2901.36	2901.36	2901.36	2901.36	0	0
1193.84	292.841	2657.56	2657.56	2657.56	2657.56	2657.56	2657.56	2657.56	0	0
1194.04	292.641	2680.08	2680.08	2680.08	2680.08	2680.09	2680.08	2680.09	0	0
1194.24	292.441	2078.56	2078.56	2078.56	2078.56	2078.58	2078.56	2078.58	0	0
1194.44	292.241	2544.92	2544.92	2544.92	2544.92	2544.98	2544.92	2544.98	0	0
1194.64	292.041	2539.2	2539.2	2539.2	2539.2	2539.36	2539.2	2539.37	0	0
1194.84	291.841	2387.98	2387.98	2387.98	2387.98	2388.43	2387.98	2388.44	0	0
1195.04	291.641	2746.94	2746.94	2746.94	2746.95	2748.12	2746.94	2748.13	0	0
1195.24	291.441	2737.18	2737.18	2737.18	2737.21	2740.08	2737.18	2740.11	0	0
1195.44	291.241	2317.56	2407.91	2407.91	2407.99	2414.7	2407.91	2414.77	0.451546	4.86075
1195.64	291.041	2383.06	2407.88	2407.88	2408.08	2422.97	2407.88	2423.17	0.183709	2.00531
1195.84	290.841	2186.02	2407.57	2407.57	2408.06	2439.49	2407.57	2439.98	1.21458	12.6981
1196.04	290.641	2298.66	2407.49	2407.49	2408.62	2471.52	2407.49	2472.64	0.81144	8.69919
1196.24	290.441	2432.3	2407.35	2407.35	2409.82	2529.07	2407.35	2531.54	0.449939	4.96189
1196.44	290.241	2285.42	2407.14	2407.15	2412.29	2626.24	2407.14	2631.39	1.61824	17.2986
1196.64	290.041	2839.34	2406.88	2406.9	2417.07	2779.8	2406.88	2790.01	-0.207004	-2.46645
1196.84	289.841	3169.34	2406.18	2406.25	2425.32	3005.46	2406.18	3024.65	-0.574687	-7.23438
1197.04	289.641	3602.7	2405.15	2405.34	2439.13	3309.33	2405.15	3343.49	-0.965641	-12.9603
1197.24	289.441	3685.62	2404.26	2404.78	2461.28	3679.04	2404.26	3736.58	0.187712	2.54819
1197.44	289.241	3742.22	2402.46	2403.83	2492.61	4072.26	2402.46	4163.79	1.54096	21.0785
1197.64	289.041	4925.46	2400.15	2403.58	2534	4419.48	2400.15	4556.75	-1.17475	-18.4354
1197.84	288.841	5325.4	2397.21	2405.32	2582.61	4637.42	2397.21	4830.94	-1.5151	-24.7231
1198.04	288.641	4652.68	2394.48	2412.8	2632.65	4666.61	2394.48	4923.1	0.886486	13.521
1198.24	288.441	4942.42	2391.5	2430.71	2673.49	4497.68	2391.49	4818.89	-0.392899	-6.1764
1198.44	288.241	4456.1	2388.86	2468.46	2694.96	4178.07	2388.85	4563.81	0.360788	5.38535
1198.64	288.041	3848.56	2386.86	2540.06	2690.33	3786.83	2386.81	4243.65	1.42408	19.7546
1198.84	287.841	3643.34	2385.55	2664.8	2660.47	3400.9	2385.34	3955.7	1.15716	15.6181
1199.04	287.641	3844.74	2384.68	2866.78	2612.7	3071.33	2383.86	3783.9	-0.219404	-3.04203
1199.24	287.441	4189.18	2384.93	3169.18	2557.64	2818.55	2382.03	3784.2	-1.39911	-20.2489
1199.44	287.241	4153.36	2389.91	3586.46	2505.51	2641.41	2380.4	3982.08	-0.594286	-8.56408
1199.64	287.041	5234.84	2406.85	4107.21	2461.2	2525.28	2377.91	4366.8	-2.68271	-43.402
1199.84	286.841	5116.42	2456.39	4682.53	2427.12	2453.85	2375.02	4894.81	-0.692769	-11.0804
1200.04	286.641	5942.08	2583.1	5218.05	2402.35	2411.66	2371.64	5500.24	-1.28167	-22.0918
1200.24	286.441	6517.98	2875.3	5593.2	2384.71	2386.87	2367.6	6137.28	-1.05442	-19.035
1200.44	286.241	6677.56	3488.32	5707.82	2372.43	2372.21	2363.41	6850.56	0.473392	8.64997
1200.64	286.041	7639.36	4653.2	5526.22	2362.15	2361.45	2357.63	7830.12	0.488017	9.5378
1200.84	285.841	9524.06	6649.09	5098.74	2352.52	2351.95	2350.38	9401.18	-0.281559	-6.14421
1201.04	285.641	12165.4	9684.5	4532.5	2341.16	2340.81	2340.19	11878.4	-0.581903	-14.3516
1201.24	285.441	15382.9	13677.9	3945.31	2326.81	2326.63	2326.4	15297.5	-0.153908	-4.26839
1201.44	285.241	19663.2	18008.4	3422.39	2308.71	2308.62	2308.54	19122.5	-0.862203	-27.0347
1201.64	285.041	22971	21485.8	3004.16	2286.36	2286.33	2286.3	22203.8	-1.13193	-38.3613
1201.84	284.841	22543	22822.5	2698.69	2263.5	2263.49	2263.48	23257.7	1.06441	35.7354
1202.04	284.641	19734	21438.7	2491.76	2242.61	2242.61	2242.61	21687.9	3.11005	97.6921
1202.24	284.441	18347.9	17917.7	2358.72	2223.56	2223.56	2223.56	18052.8	-0.487157	-14.7553
1202.44	284.241	14021.1	13554.5	2278.49	2209.02	2209.02	2209.02	13624	-0.750008	-19.8583
1202.64	284.041	9938.24	9538.93	2233.52	2199.66	2199.66	2199.66	9572.79	-0.819708	-18.2725
1202.84	283.841	6625.06	6488.49	2208.94	2193.29	2193.29	2193.29	6504.14	-0.3322	-6.04616
1203.04	283.641	5495.38	4482.98	2196.43	2189.56	2189.56	2189.56	4489.84	-3.03309	-50.2769
1203.24	283.441	3860.7	3311.22	2190.35	2187.48	2187.48	2187.48	3314.09	-1.96712	-27.3305
1203.44	283.241	3300.78	2693.04	2187.06	2185.92	2185.92	2185.92	2694.17	-2.36093	-30.3303
1203.64	283.041	2916.06	2396.48	2185.71	2185.28	2185.28	2185.28	2396.91	-2.14971	-25.9576
1203.84	282.841	2492.3	2266.06	2184.95	2184.8	2184.8	2184.8	2266.21	-1.01267	-11.3045
1204.04	282.641	2605.06	2213.28	2184.44	2184.39	2184.39	2184.39	2213.33	-1.71617	-19.5864
1204.24	282.441	2349.24	2193.67	2184.19	2184.17	2184.17	2184.17	2193.68	-0.717641	-7.77779
1204.44	282.241	2438.84	2186.48	2183.59	2183.59	2183.59	2183.59	2186.49	-1.14262	-12.6177
1204.64	282.041	2245.24	2184.33	2183.52	2183.52	2183.52	2183.52	2184.33	-0.287431	-3.04544
1204.84	281.841	2127.76	2183.47	2183.26	2183.26	2183.26	2183.26	2183.47	0.270058	2.7855
1205.04	281.641	2322.92	2183.12	2183.07	2183.07	2183.07	2183.07	2183.12	-0.648588	-6.9899
1205.24	281.441	2225.14	2183.02	2183.01	2183.01	2183.01	2183.01	2183.02	-0.199641	-2.10578
1205.44	281.241	2168	2182.96	2182.96	2182.96	2182.96	2182.96	2182.96	0.0718546	0.748116
1205.64	281.041	1915.85	2182.78	2182.78	2182.78	2182.78	2182.78	2182.78	1.36363	13.3464
1205.84	280.841	2000.46	2182.64	2182.64	2182.64	2182.64	2182.64	2182.64	0.910819	9.10924
1206.04	280.641	2112.92	2182.48	2182.48	2182.48	2182.48	2182.48	2182.48	0.338385	3.47807
1206.24	280.441	2324.22	2182.37	2182.37	2182.37	2182.37	2182.37	2182.37	-0.657927	-7.09253
1206.44	280.241	1985.05	1985.05	1985.05	1985.05	1985.05	1985.05	1985.05	0	0
1206.64	280.041	2645.98	2645.98	2645.98	2645.98	2645.98	2645.98	2645.98	0	0
1206.84	279.841	1934.76	1934.76	1934.76	1934.76	1934.76	1934.76	1934.76	0	0
1207.04	279.641	1915.13	1915.13	1915.13	1915.13	1915.13	1915.13	1915.13	0	0
1207.24	279.441	2002.44	2002.44	2002.44	2002.44	2002.44	2002.44	2002.44	0	0
1207.44	279.241	1763.78	1763.78	1763.78	1763.78	1763.78	1763.78	1763.78	0	0
1207.64	279.041	2097.74	2097.74	2097.74	2097.74	2097.74	2097.74	2097.74	0	0
1207.84	278.841	2098.46	2098.46	2098.46	2098.46	2098.46	2098.46	2098.46	0	0
1208.04	278.641	2028.3	2028.3	2028.3	2028.3	2028.3	2028.3	2028.3	0	0
1208.24	278.441	2102.26	2102.26	2102.26	2102.26	2102.26	2102.26	2102.26	0	0
1208.44	278.241	2308.82	2308.82	2308.82	2308.82	2308.82	2308.82	2308.82	0	0