File: XPS/XPS/250418_191x195-1.3.csv
C1s Scan
	Characteristic Energy eV	1486.68	Acquisition Time s	0.05
KE_C1s Scan	BE_C1s Scan	CPS_C1s Scan	C-C/C-H_1_C1s Scan	C-O_2_C1s Scan	C=O_3_C1s Scan	O-C=O_4_C1s Scan	Background_C1s Scan	Envelope_C1s Scan	Normalised_Residual_C1s Scan	Residual_C1s Scan
1188.97	297.713	2432.44	2432.44	2432.44	2432.44	2432.44	2432.44	2432.44	0	0
1189.17	297.513	2290.1	2290.1	2290.1	2290.1	2290.1	2290.1	2290.1	0	0
1189.37	297.313	2126.38	2126.38	2126.38	2126.38	2126.38	2126.38	2126.38	0	0
1189.57	297.113	2263.34	2263.34	2263.34	2263.34	2263.34	2263.34	2263.34	0	0
1189.77	296.913	1990.17	1990.17	1990.17	1990.17	1990.17	1990.17	1990.17	0	0
1189.97	296.713	2272.2	2272.2	2272.2	2272.2	2272.2	2272.2	2272.2	0	0
1190.17	296.513	1964.63	1964.63	1964.63	1964.63	1964.63	1964.63	1964.63	0	0
1190.37	296.313	1952.78	1952.78	1952.78	1952.78	1952.78	1952.78	1952.78	0	0
1190.57	296.113	1816.44	1816.44	1816.44	1816.44	1816.44	1816.44	1816.44	0	0
1190.77	295.913	1789.81	1789.81	1789.81	1789.81	1789.81	1789.81	1789.81	0	0
1190.97	295.713	1469.28	1469.28	1469.28	1469.28	1469.28	1469.28	1469.28	0	0
1191.17	295.513	2019.36	2019.36	2019.36	2019.36	2019.36	2019.36	2019.36	0	0
1191.37	295.313	1831.28	1831.28	1831.28	1831.28	1831.28	1831.28	1831.28	0	0
1191.57	295.113	1603.45	1603.45	1603.45	1603.45	1603.45	1603.45	1603.45	0	0
1191.77	294.913	2110.64	2110.64	2110.64	2110.64	2110.64	2110.64	2110.64	0	0
1191.97	294.713	1564.61	1564.61	1564.61	1564.61	1564.61	1564.61	1564.61	0	0
1192.17	294.513	1518.72	1518.72	1518.72	1518.72	1518.72	1518.72	1518.72	0	0
1192.37	294.313	1486.99	1486.99	1486.99	1486.99	1486.99	1486.99	1486.99	0	0
1192.57	294.113	1512.14	1512.14	1512.14	1512.14	1512.14	1512.14	1512.14	0	0
1192.77	293.913	1529.18	1529.18	1529.18	1529.18	1529.18	1529.18	1529.18	0	0
1192.97	293.713	1583.01	1583.01	1583.01	1583.01	1583.01	1583.01	1583.01	0	0
1193.17	293.513	1823.54	1823.54	1823.54	1823.54	1823.54	1823.54	1823.54	0	0
1193.37	293.313	1615.58	1615.58	1615.58	1615.58	1615.58	1615.58	1615.58	0	0
1193.57	293.113	1396.04	1396.04	1396.04	1396.04	1396.04	1396.04	1396.04	0	0
1193.77	292.913	1647.52	1647.52	1647.52	1647.52	1647.52	1647.52	1647.52	0	0
1193.97	292.713	1529.39	1529.39	1529.39	1529.39	1529.39	1529.39	1529.39	0	0
1194.17	292.513	1453.41	1453.41	1453.41	1453.41	1453.41	1453.41	1453.41	0	0
1194.37	292.313	1535.11	1535.11	1535.11	1535.11	1535.11	1535.11	1535.11	0	0
1194.57	292.113	1282.01	1282.01	1282.01	1282.01	1282.02	1282.01	1282.02	0	0
1194.77	291.913	1377.43	1377.43	1377.43	1377.43	1377.44	1377.43	1377.44	0	0
1194.97	291.713	1552.73	1552.73	1552.73	1552.73	1552.79	1552.73	1552.79	0	0
1195.17	291.513	1439.95	1439.95	1439.95	1439.95	1440.21	1439.95	1440.21	0	0
1195.37	291.313	1585.54	1585.54	1585.54	1585.54	1586.5	1585.54	1586.5	0	0
1195.57	291.113	1361.54	1361.54	1361.54	1361.54	1364.74	1361.54	1364.74	0	0
1195.77	290.913	1373.12	1376.01	1376.01	1376.01	1385.69	1376.01	1385.69	0.0758261	0.628287
1195.97	290.713	1517.49	1375.96	1375.96	1375.96	1402.78	1375.96	1402.78	-0.65843	-5.73531
1196.17	290.513	1356.67	1375.92	1375.92	1375.92	1443.51	1375.92	1443.52	0.527214	4.3422
1196.37	290.313	1504.45	1375.88	1375.88	1375.91	1530.74	1375.88	1530.77	0.151735	1.31601
1196.57	290.113	1735.23	1375.71	1375.71	1375.83	1697.54	1375.71	1697.66	-0.201642	-1.87821
1196.77	289.913	1910.55	1375.59	1375.59	1376.02	1977.23	1375.59	1977.66	0.343336	3.3557
1196.97	289.713	2363.96	1375.25	1375.25	1376.59	2380.11	1375.25	2381.46	0.0804924	0.875105
1197.17	289.513	2783.36	1374.75	1374.77	1378.61	2852.11	1374.75	2855.99	0.307852	3.63172
1197.37	289.313	3300.66	1373.95	1374.03	1384.05	3257.94	1373.95	3268.13	-0.126603	-1.6264
1197.57	289.113	3114.4	1373.2	1373.55	1397.29	3430.09	1373.2	3454.53	1.36283	17.0065
1197.77	288.913	3901.74	1372.3	1373.58	1424.31	3284.27	1372.3	3337.55	-2.01968	-28.2096
1197.97	288.713	2841.08	1371.7	1375.9	1473.34	2891.31	1371.69	2997.16	0.654767	7.80393
1198.17	288.513	2587.26	1371.23	1383.91	1548.99	2417.53	1371.22	2607.99	0.0911275	1.03647
1198.37	288.313	2284.54	1370.84	1405.53	1646.27	2004.68	1370.8	2314.92	0.142135	1.5191
1198.57	288.113	2514.06	1370.57	1457.28	1742.92	1712.48	1370.39	2172.08	-1.52508	-17.0988
1198.77	287.913	1975.11	1370.83	1567.39	1803.47	1536.4	1370.12	2167.73	0.969127	9.63079
1198.97	287.713	2258.88	1372.34	1775.58	1799.25	1443.02	1369.82	2280.73	0.102806	1.09257
1199.17	287.513	2785.78	1377.69	2120.83	1732.4	1398.62	1369.37	2521.44	-1.11988	-13.2169
1199.37	287.313	3228.14	1394.13	2608.6	1632.96	1379.42	1368.75	2908.88	-1.25647	-15.963
1199.57	287.113	3457.08	1439.58	3167.76	1536.14	1371.56	1368.02	3410.98	-0.175322	-2.30503
1199.77	286.913	4290.28	1553.45	3630.17	1461.92	1368.08	1367.01	3912.6	-1.28933	-18.8839
1199.97	286.713	4303.44	1814.87	3799.06	1414.06	1366.29	1366	4296.3	-0.0243449	-0.357109
1200.17	286.513	4577.94	2362.3	3591.99	1386.71	1364.81	1364.73	4611.61	0.111279	1.68358
1200.37	286.313	5491.38	3405.57	3108.71	1372.37	1363.25	1363.23	5160.2	-0.999323	-16.5589
1200.57	286.113	6744.64	5199.65	2548.03	1364.86	1361.41	1361.41	6389.72	-0.96635	-17.7459
1200.77	285.913	8951.02	7942.62	2068.89	1359.91	1358.72	1358.72	8653.98	-0.702033	-14.8518
1200.97	285.713	11302.2	11577.6	1734.88	1355.54	1355.16	1355.16	11957.6	1.37856	32.7711
1201.17	285.513	16211.4	15558.5	1532.26	1349.75	1349.65	1349.65	15741.2	-0.825842	-23.5121
1201.37	285.313	18765.5	18808.8	1422.52	1342.85	1342.83	1342.83	18888.6	0.200841	6.15202
1201.57	285.113	19079.3	20138.7	1367.48	1335.88	1335.88	1335.88	20170.3	1.76611	54.5486
1201.77	284.913	19695.6	18985.6	1339.87	1328.47	1328.47	1328.47	18997	-1.11315	-34.932
1201.97	284.713	16201.4	15837.7	1326.26	1322.5	1322.5	1322.5	15841.5	-0.632213	-17.9938
1202.17	284.513	11782	11863.2	1318.94	1317.82	1317.82	1317.82	11864.4	0.169757	4.12023
1202.37	284.313	7946.22	8166.42	1315.12	1314.81	1314.81	1314.81	8166.73	0.553138	11.0255
1202.57	284.113	4917.28	5338.29	1313.15	1313.08	1313.08	1313.08	5338.37	1.34275	21.0544
1202.77	283.913	3783.56	3468.66	1312.09	1312.07	1312.07	1312.07	3468.68	-1.14466	-15.7439
1202.97	283.713	2463.76	2371.48	1311.53	1311.52	1311.52	1311.52	2371.48	-0.415716	-4.61404
1203.17	283.513	2035.88	1790.77	1311.09	1311.09	1311.09	1311.09	1790.77	-1.2147	-12.2555
1203.37	283.313	1671.51	1511.16	1310.87	1310.87	1310.87	1310.87	1511.16	-0.876974	-8.01726
1203.57	283.113	1462.88	1388.11	1310.72	1310.72	1310.72	1310.72	1388.11	-0.437149	-3.73869
1203.77	282.913	1762.46	1338.25	1310.6	1310.6	1310.6	1310.6	1338.25	-2.25944	-21.2103
1203.97	282.713	1622.3	1319.62	1310.48	1310.48	1310.48	1310.48	1319.62	-1.68033	-15.1337
1204.17	282.513	1614.71	1313.13	1310.34	1310.34	1310.34	1310.34	1313.13	-1.67816	-15.0787
1204.37	282.313	1395.92	1311.07	1310.28	1310.28	1310.28	1310.28	1311.07	-0.507789	-4.24227
1204.57	282.113	1446.96	1310.4	1310.19	1310.19	1310.19	1310.19	1310.4	-0.802772	-6.8282
1204.77	281.913	1625.17	1310.18	1310.13	1310.13	1310.13	1310.13	1310.18	-1.74721	-15.7499
1204.97	281.713	1261.14	1310.11	1310.1	1310.1	1310.1	1310.1	1310.11	0.308305	2.4482
1205.17	281.513	988.046	1310	1310	1310	1310	1310	1310	2.29032	16.0979
1205.37	281.313	1516.71	1309.92	1309.92	1309.92	1309.92	1309.92	1309.92	-1.18732	-10.3396
1205.57	281.113	1526.93	1309.86	1309.86	1309.86	1309.86	1309.86	1309.86	-1.24216	-10.8536
1205.77	280.913	1327.82	1327.82	1327.82	1327.82	1327.82	1327.82	1327.82	0	0
1205.97	280.713	1212.84	1212.84	1212.84	1212.84	1212.84	1212.84	1212.84	0	0
1206.17	280.513	1393.77	1393.77	1393.77	1393.77	1393.77	1393.77	1393.77	0	0
1206.37	280.313	1222.91	1222.91	1222.91	1222.91	1222.91	1222.91	1222.91	0	0
1206.57	280.113	1183.72	1183.72	1183.72	1183.72	1183.72	1183.72	1183.72	0	0
1206.77	279.913	1283.18	1283.18	1283.18	1283.18	1283.18	1283.18	1283.18	0	0
1206.97	279.713	1129.11	1129.11	1129.11	1129.11	1129.11	1129.11	1129.11	0	0
1207.17	279.513	1030.96	1030.96	1030.96	1030.96	1030.96	1030.96	1030.96	0	0
1207.37	279.313	1115.29	1115.29	1115.29	1115.29	1115.29	1115.29	1115.29	0	0
1207.57	279.113	959.736	959.736	959.736	959.736	959.736	959.736	959.736	0	0
1207.77	278.913	1332.42	1332.42	1332.42	1332.42	1332.42	1332.42	1332.42	0	0
1207.97	278.713	1118.37	1118.37	1118.37	1118.37	1118.37	1118.37	1118.37	0	0