File: XPS/XPS/250418_C-2.3.csv
C1s Scan
	Characteristic Energy eV	1486.68	Acquisition Time s	0.05
KE_C1s Scan	BE_C1s Scan	CPS_C1s Scan	C-C/C-H_1_C1s Scan	C-O_2_C1s Scan	C=O_3_C1s Scan	O-C=O_4_C1s Scan	Background_C1s Scan	Envelope_C1s Scan	Normalised_Residual_C1s Scan	Residual_C1s Scan
1189.28	297.396	4063.82	4063.82	4063.82	4063.82	4063.82	4063.82	4063.82	0	0
1189.48	297.196	3808.8	3808.8	3808.8	3808.8	3808.8	3808.8	3808.8	0	0
1189.68	296.996	4329.06	4329.06	4329.06	4329.06	4329.06	4329.06	4329.06	0	0
1189.88	296.796	4193.74	4193.74	4193.74	4193.74	4193.74	4193.74	4193.74	0	0
1190.08	296.596	3941.6	3941.6	3941.6	3941.6	3941.6	3941.6	3941.6	0	0
1190.28	296.396	3941.9	3941.9	3941.9	3941.9	3941.9	3941.9	3941.9	0	0
1190.48	296.196	4026.54	4026.54	4026.54	4026.54	4026.54	4026.54	4026.54	0	0
1190.68	295.996	4224.96	4224.96	4224.96	4224.96	4224.96	4224.96	4224.96	0	0
1190.88	295.796	3810.04	3810.04	3810.04	3810.04	3810.04	3810.04	3810.04	0	0
1191.08	295.596	3510.62	3510.62	3510.62	3510.62	3510.62	3510.62	3510.62	0	0
1191.28	295.396	3303.7	3303.7	3303.7	3303.7	3303.7	3303.7	3303.7	0	0
1191.48	295.196	3977.68	3977.68	3977.68	3977.68	3977.68	3977.68	3977.68	0	0
1191.68	294.996	3519.94	3519.94	3519.94	3519.94	3519.94	3519.94	3519.94	0	0
1191.88	294.796	3457.44	3457.44	3457.44	3457.44	3457.44	3457.44	3457.44	0	0
1192.08	294.596	3511.14	3511.14	3511.14	3511.14	3511.14	3511.14	3511.14	0	0
1192.28	294.396	3488.08	3488.08	3488.08	3488.08	3488.08	3488.08	3488.08	0	0
1192.48	294.196	3157.72	3157.72	3157.72	3157.72	3157.72	3157.72	3157.72	0	0
1192.68	293.996	3405.24	3405.24	3405.24	3405.24	3405.24	3405.24	3405.24	0	0
1192.88	293.796	3453.34	3453.34	3453.34	3453.34	3453.34	3453.34	3453.34	0	0
1193.08	293.596	3459.58	3459.58	3459.58	3459.58	3459.58	3459.58	3459.58	0	0
1193.28	293.396	2864.92	2864.92	2864.92	2864.92	2864.92	2864.92	2864.92	0	0
1193.48	293.196	3496.02	3496.02	3496.02	3496.02	3496.02	3496.02	3496.02	0	0
1193.68	292.996	3341.42	3341.42	3341.42	3341.42	3341.42	3341.42	3341.42	0	0
1193.88	292.796	2717.76	2717.76	2717.76	2717.76	2717.76	2717.76	2717.76	0	0
1194.08	292.596	3390.1	3390.1	3390.1	3390.1	3390.1	3390.1	3390.1	0	0
1194.28	292.396	3644.62	3644.62	3644.62	3644.62	3644.62	3644.62	3644.62	0	0
1194.48	292.196	3353.48	3353.48	3353.48	3353.48	3353.48	3353.48	3353.48	0	0
1194.68	291.996	3136.7	3136.7	3136.7	3136.7	3136.71	3136.7	3136.71	0	0
1194.88	291.796	3407.78	3407.78	3407.78	3407.78	3407.84	3407.78	3407.84	0	0
1195.08	291.596	3079.58	3079.58	3079.58	3079.58	3079.8	3079.58	3079.8	0	0
1195.28	291.396	2725.62	2725.62	2725.62	2725.62	2726.37	2725.62	2726.37	0	0
1195.48	291.196	3061.92	3061.92	3061.92	3061.92	3064.31	3061.92	3064.31	0	0
1195.68	290.996	2958.28	3105.42	3105.42	3105.42	3112.51	3105.42	3112.51	0.63406	7.71143
1195.88	290.796	3400.1	3105.24	3105.24	3105.24	3124.64	3105.24	3124.64	-1.05631	-13.7728
1196.08	290.596	3515.32	3105.04	3105.04	3105.06	3154.16	3105.04	3154.18	-1.36201	-18.0572
1196.28	290.396	3356.32	3104.93	3104.93	3104.98	3219.83	3104.93	3219.88	-0.526606	-6.82186
1196.48	290.196	3319.36	3104.83	3104.83	3104.99	3352.86	3104.83	3353.03	0.130662	1.68331
1196.68	289.996	3554.8	3104.61	3104.61	3105.13	3597.49	3104.61	3598.02	0.162098	2.16108
1196.88	289.796	3844.86	3104.05	3104.06	3105.6	4001.98	3104.05	4003.54	0.572213	7.93383
1197.08	289.596	4541.38	3103.04	3103.06	3107.26	4593	3103.04	4597.24	0.185336	2.79279
1197.28	289.396	5487.06	3101.45	3101.52	3112.1	5332.72	3101.45	5343.43	-0.433559	-7.18131
1197.48	289.196	6273.28	3099.24	3099.5	3124.06	6079.64	3099.24	6104.72	-0.475888	-8.42825
1197.68	288.996	6941.32	3096.48	3097.37	3149.84	6606.19	3096.48	6660.44	-0.753846	-14.0439
1197.88	288.796	6907.36	3093.59	3096.42	3199.17	6707.71	3093.59	6816.11	-0.245503	-4.56244
1198.08	288.596	6455.06	3090.78	3099.05	3282.17	6340.09	3090.77	6539.77	0.235766	4.23562
1198.28	288.396	6539.48	3088.34	3110.77	3404.17	5653.6	3088.33	5991.89	-1.51414	-27.3793
1198.48	288.196	5673.12	3086.52	3142.73	3556.48	4883.78	3086.47	5410.1	-0.78083	-13.1508
1198.68	287.996	4817.78	3085.23	3215.32	3708.6	4215.79	3085.01	4969.89	0.490042	7.60575
1198.88	287.796	4566.92	3084.65	3362.34	3812.98	3729.23	3083.82	4737.74	0.565216	8.54104
1199.08	287.596	4752.62	3085.6	3630.7	3827.99	3419.35	3082.6	4715.84	-0.119286	-1.83883
1199.28	287.396	4884.94	3091.17	4069.54	3746.21	3242.58	3081.13	4906.08	0.0676371	1.05706
1199.48	287.196	5826.72	3110.17	4700.41	3600.54	3150.64	3079.2	5324.15	-1.47221	-25.1285
1199.68	286.996	5651.16	3165.53	5473.02	3440.12	3106.38	3077.17	5953.55	0.899453	15.1193
1199.88	286.796	6528.24	3307.58	6228.11	3301.61	3085.57	3074.53	6699.29	0.473393	8.55273
1200.08	286.596	7607.34	3639.21	6726.86	3200.25	3075.12	3071.26	7427.65	-0.460665	-8.98435
1200.28	286.396	8500.1	4345.09	6770.94	3134.29	3068.52	3067.28	8117.02	-0.929099	-19.154
1200.48	286.196	9013.98	5712.5	6340.3	3095.14	3063.51	3063.14	9022.03	0.0189635	0.402589
1200.68	285.996	11005.7	8102.85	5606.25	3071.53	3057.54	3057.44	10665.9	-0.724276	-16.9902
1200.88	285.796	12869.1	11828.5	4811.45	3055.71	3050.01	3049.98	13595.7	1.43229	36.332
1201.08	285.596	18449.8	16883.1	4133.26	3040.99	3038.85	3038.84	17979.7	-0.774025	-23.5091
1201.28	285.396	23350	22606.2	3642.02	3024.9	3024.15	3024.15	23224.8	-0.18323	-6.26074
1201.48	285.196	27412.4	27547.9	3324.98	3005.94	3005.7	3005.7	27867.4	0.614542	22.7515
1201.68	284.996	31336.8	29951.4	3136.01	2984.36	2984.28	2984.28	30103.2	-1.55827	-61.6815
1201.88	284.796	28730.4	28813.7	3030.5	2964.02	2964	2964	28880.2	0.197679	7.49232
1202.08	284.596	25291.4	24616	2973.34	2946.42	2946.41	2946.41	24642.9	-0.911816	-32.4249
1202.28	284.396	19607.8	18959.7	2942.56	2932.48	2932.48	2932.48	18969.8	-1.01877	-31.8988
1202.48	284.196	13803.7	13505.7	2926.63	2923.14	2923.14	2923.14	13509.2	-0.560588	-14.7274
1202.68	283.996	9835.46	9226.09	2918.36	2917.24	2917.24	2917.24	9227.21	-1.37142	-30.4126
1202.88	283.796	6486.44	6340.54	2914.54	2914.21	2914.21	2914.21	6340.87	-0.40416	-7.2785
1203.08	283.596	5330.38	4618.24	2912.43	2912.34	2912.34	2912.34	4618.33	-2.1808	-35.6025
1203.28	283.396	4443.8	3693.04	2911.34	2911.32	2911.32	2911.32	3693.06	-2.51822	-37.5368
1203.48	283.196	3754.64	3241.15	2910.69	2910.68	2910.68	2910.68	3241.15	-1.87383	-25.6743
1203.68	282.996	3788.08	3039.03	2910	2910	2910	2910	3039.03	-2.72136	-37.4525
1203.88	282.796	3705.74	2956	2909.38	2909.38	2909.38	2909.38	2956	-2.75395	-37.4868
1204.08	282.596	3452.36	2924.64	2909.05	2909.05	2909.05	2909.05	2924.64	-2.00831	-26.3861
1204.28	282.396	3096.56	2913.55	2908.73	2908.73	2908.73	2908.73	2913.55	-0.735396	-9.15053
1204.48	282.196	2599.48	2909.85	2908.48	2908.48	2908.48	2908.48	2909.85	1.36121	15.5187
1204.68	281.996	3090.78	2908.74	2908.37	2908.37	2908.37	2908.37	2908.74	-0.732193	-9.10216
1204.88	281.796	2851.28	2908.28	2908.19	2908.19	2908.19	2908.19	2908.28	0.238692	2.84998
1205.08	281.596	3025.66	2908	2907.98	2907.98	2907.98	2907.98	2908	-0.478299	-5.88294
1205.28	281.396	2676.5	2907.88	2907.88	2907.88	2907.88	2907.88	2907.88	1.00007	11.569
1205.48	281.196	3164.2	3164.2	3164.2	3164.2	3164.2	3164.2	3164.2	0	0
1205.68	280.996	2667.88	2667.88	2667.88	2667.88	2667.88	2667.88	2667.88	0	0
1205.88	280.796	3215.42	3215.42	3215.42	3215.42	3215.42	3215.42	3215.42	0	0
1206.08	280.596	2742.1	2742.1	2742.1	2742.1	2742.1	2742.1	2742.1	0	0
1206.28	280.396	2676.04	2676.04	2676.04	2676.04	2676.04	2676.04	2676.04	0	0
1206.48	280.196	3053.84	3053.84	3053.84	3053.84	3053.84	3053.84	3053.84	0	0
1206.68	279.996	2721.64	2721.64	2721.64	2721.64	2721.64	2721.64	2721.64	0	0
1206.88	279.796	2990.26	2990.26	2990.26	2990.26	2990.26	2990.26	2990.26	0	0
1207.08	279.596	2366.9	2366.9	2366.9	2366.9	2366.9	2366.9	2366.9	0	0
1207.28	279.396	2847.88	2847.88	2847.88	2847.88	2847.88	2847.88	2847.88	0	0
1207.48	279.196	2977.36	2977.36	2977.36	2977.36	2977.36	2977.36	2977.36	0	0
1207.68	278.996	3252.84	3252.84	3252.84	3252.84	3252.84	3252.84	3252.84	0	0
1207.88	278.796	2995.72	2995.72	2995.72	2995.72	2995.72	2995.72	2995.72	0	0
1208.08	278.596	2947.24	2947.24	2947.24	2947.24	2947.24	2947.24	2947.24	0	0
1208.28	278.396	2897.32	2897.32	2897.32	2897.32	2897.32	2897.32	2897.32	0	0