File: XPS/XPS/250418_C-3.2.csv
C1s Scan
	Characteristic Energy eV	1486.68	Acquisition Time s	0.05
KE_C1s Scan	BE_C1s Scan	CPS_C1s Scan	C-C/C-H_1_C1s Scan	C-O_2_C1s Scan	C=O_3_C1s Scan	O-C=O_4_C1s Scan	Background_C1s Scan	Envelope_C1s Scan	Normalised_Residual_C1s Scan	Residual_C1s Scan
1188.93	297.752	1729.25	1729.25	1729.25	1729.25	1729.25	1729.25	1729.25	0	0
1189.13	297.552	1711.21	1711.21	1711.21	1711.21	1711.21	1711.21	1711.21	0	0
1189.33	297.352	1679.65	1679.65	1679.65	1679.65	1679.65	1679.65	1679.65	0	0
1189.53	297.152	1908.98	1908.98	1908.98	1908.98	1908.98	1908.98	1908.98	0	0
1189.73	296.952	1559.22	1559.22	1559.22	1559.22	1559.22	1559.22	1559.22	0	0
1189.93	296.752	1632.29	1632.29	1632.29	1632.29	1632.29	1632.29	1632.29	0	0
1190.13	296.552	1648.52	1648.52	1648.52	1648.52	1648.52	1648.52	1648.52	0	0
1190.33	296.352	1648.37	1648.37	1648.37	1648.37	1648.37	1648.37	1648.37	0	0
1190.53	296.152	1529.63	1529.63	1529.63	1529.63	1529.63	1529.63	1529.63	0	0
1190.73	295.952	1205.09	1205.09	1205.09	1205.09	1205.09	1205.09	1205.09	0	0
1190.93	295.752	1224.07	1224.07	1224.07	1224.07	1224.07	1224.07	1224.07	0	0
1191.13	295.552	1184.34	1184.34	1184.34	1184.34	1184.34	1184.34	1184.34	0	0
1191.33	295.352	1148.53	1148.53	1148.53	1148.53	1148.53	1148.53	1148.53	0	0
1191.53	295.152	1061.38	1061.38	1061.38	1061.38	1061.38	1061.38	1061.38	0	0
1191.73	294.952	1091.02	1091.02	1091.02	1091.02	1091.02	1091.02	1091.02	0	0
1191.93	294.752	1073.72	1073.72	1073.72	1073.72	1073.72	1073.72	1073.72	0	0
1192.13	294.552	870.492	870.492	870.492	870.492	870.492	870.492	870.492	0	0
1192.33	294.352	864.152	864.152	864.152	864.152	864.152	864.152	864.152	0	0
1192.53	294.152	922.686	922.686	922.686	922.686	922.686	922.686	922.686	0	0
1192.73	293.952	956.39	956.39	956.39	956.39	956.39	956.39	956.39	0	0
1192.93	293.752	897.982	897.982	897.982	897.982	897.982	897.982	897.982	0	0
1193.13	293.552	726.336	726.336	726.336	726.336	726.336	726.336	726.336	0	0
1193.33	293.352	696.232	696.232	696.232	696.232	696.232	696.232	696.232	0	0
1193.53	293.152	575.038	575.038	575.038	575.038	575.038	575.038	575.038	0	0
1193.73	292.952	553.416	553.416	553.416	553.416	553.416	553.416	553.416	0	0
1193.93	292.752	413.142	413.142	413.142	413.142	413.142	413.142	413.142	0	0
1194.13	292.552	611.032	611.032	611.032	611.032	611.032	611.032	611.032	0	0
1194.33	292.352	416.46	416.46	416.46	416.46	416.46	416.46	416.46	0	0
1194.53	292.152	394.088	394.088	394.088	394.088	394.09	394.088	394.09	0	0
1194.73	291.952	367.554	367.554	367.554	367.554	367.561	367.554	367.561	0	0
1194.93	291.752	337.644	337.644	337.644	337.644	337.669	337.644	337.669	0	0
1195.13	291.552	423.162	423.162	423.162	423.162	423.25	423.162	423.25	0	0
1195.33	291.352	447.974	447.974	447.974	447.974	448.258	447.974	448.258	0	0
1195.53	291.152	267.778	267.778	267.778	267.779	268.619	267.778	268.62	0	0
1195.73	290.952	274.64	291.343	291.343	291.346	293.648	291.343	293.651	0.256514	0.950556
1195.93	290.752	317.6	291.348	291.348	291.361	297.188	291.348	297.201	-0.255948	-1.01995
1196.13	290.552	451.998	291.36	291.36	291.41	305.027	291.36	305.077	-1.54526	-7.34607
1196.33	290.352	290.958	291.363	291.363	291.536	320.865	291.363	321.038	0.394323	1.50401
1196.53	290.152	481.114	291.374	291.374	291.932	349.976	291.374	350.533	-1.33119	-6.52903
1196.73	289.952	342.866	291.385	291.385	293.044	398.04	291.385	399.699	0.686318	2.84166
1196.93	289.752	444.822	291.399	291.4	295.966	468.083	291.399	472.651	0.295041	1.39143
1197.13	289.552	530.656	291.419	291.423	303.037	555.367	291.419	566.989	0.352675	1.81663
1197.33	289.352	577.76	291.454	291.47	318.762	642.962	291.454	670.287	0.860758	4.62637
1197.53	289.152	608.358	291.489	291.556	350.724	703.902	291.489	763.203	1.40379	7.74224
1197.73	288.952	905.632	291.54	291.789	409.815	714.263	291.54	832.787	-0.541265	-3.64226
1197.93	288.752	953.166	291.602	292.458	508.188	669.707	291.602	887.15	-0.478137	-3.30082
1198.13	288.552	1069.42	291.669	294.389	652.802	588.591	291.669	952.445	-0.799815	-5.84854
1198.33	288.352	922.986	291.723	299.714	834.911	498.668	291.723	1049.85	0.933718	6.34305
1198.53	288.152	1467.22	291.82	313.521	1020.5	421.36	291.82	1171.74	-1.7249	-14.774
1198.73	287.952	998.4	291.892	346.368	1153.64	365.467	291.892	1281.69	2.00479	14.1647
1198.93	287.752	1267.04	291.987	418.311	1182.88	330.187	291.981	1347.42	0.504947	4.01907
1199.13	287.552	1432.32	292.126	562.327	1095.76	310.311	292.082	1384.27	-0.283892	-2.40247
1199.33	287.352	1693.63	292.517	824.083	928.344	300.232	292.215	1468.53	-1.22306	-11.2549
1199.53	287.152	2047.4	294.164	1251.4	738.844	295.612	292.357	1702.95	-1.7022	-17.2225
1199.73	286.952	2037.1	301.952	1865.01	573.705	293.722	292.501	2156.88	0.59343	5.98909
1199.93	286.752	2876.5	335.995	2614.39	453.292	293.139	292.715	2818.67	-0.241115	-2.89162
1200.13	286.552	3406.9	465.591	3343.84	376.739	293.094	292.958	3600.39	0.741246	9.67447
1200.33	286.352	4218.28	893.52	3821.37	333.511	293.364	293.323	4461.8	0.838395	12.1759
1200.53	286.152	5834.34	2111.52	3857.31	311.557	293.793	293.782	5692.83	-0.414263	-7.0755
1200.73	285.952	8366.46	5079.97	3436.62	301.733	294.475	294.472	8229.38	-0.335102	-6.85382
1200.93	285.752	14478.8	11163.2	2730.38	298.349	295.608	295.607	13600.7	-1.63184	-43.9065
1201.13	285.552	22320.8	21264	1973.89	298.464	297.507	297.507	22941.4	0.928823	31.0294
1201.33	285.352	32941.6	33945	1338.15	300.755	300.446	300.446	34983	2.51498	102.068
1201.53	285.152	43979	44043.7	887.622	304.428	304.336	304.336	44627.1	0.691036	32.4047
1201.73	284.952	46496.8	45390.9	608.538	308.676	308.651	308.651	45690.8	-0.835781	-40.2985
1201.93	284.752	38041.2	37043.5	454.273	312.445	312.439	312.439	37185.4	-0.981172	-42.7915
1202.13	284.552	23394	24404.1	376.815	314.933	314.931	314.931	24466	1.56722	53.6001
1202.33	284.352	12144.6	13371.1	341.278	316.337	316.337	316.337	13396	2.53915	62.57
1202.53	284.152	6303.54	6299.22	326.311	317.019	317.019	317.019	6308.52	0.014013	0.248776
1202.73	283.952	2565.9	2674.55	320.509	317.308	317.308	317.308	2677.75	0.493735	5.59241
1202.93	283.752	2417.84	1123.89	318.536	317.517	317.517	317.517	1124.91	-5.87959	-64.6466
1203.13	283.552	1393.42	557.807	317.948	317.648	317.648	317.648	558.107	-5.00374	-41.7658
1203.33	283.352	1313.22	380.09	317.833	317.752	317.752	317.752	380.172	-5.75733	-46.6526
1203.53	283.152	1008.99	331.919	317.842	317.821	317.821	317.821	331.939	-4.76608	-33.8523
1203.73	282.952	880.482	320.661	317.876	317.871	317.871	317.871	320.666	-4.21862	-27.9908
1203.93	282.752	731.494	318.397	317.916	317.915	317.915	317.915	318.398	-3.41531	-20.6548
1204.13	282.552	682.9	318.024	317.952	317.952	317.952	317.952	318.024	-3.12213	-18.2438
1204.33	282.352	566.334	317.984	317.975	317.975	317.975	317.975	317.984	-2.33353	-12.4175
1204.53	282.152	636.076	317.996	317.995	317.995	317.995	317.995	317.996	-2.82011	-15.904
1204.73	281.952	487.266	318.012	318.011	318.011	318.011	318.011	318.012	-1.71452	-8.46272
1204.93	281.752	386.72	318.021	318.021	318.021	318.021	318.021	318.021	-0.781157	-3.43496
1205.13	281.552	261.538	318.032	318.032	318.032	318.032	318.032	318.032	0.781121	2.82469
1205.33	281.352	369.564	369.564	369.564	369.564	369.564	369.564	369.564	0	0
1205.53	281.152	206.078	206.078	206.078	206.078	206.078	206.078	206.078	0	0
1205.73	280.952	281.11	281.11	281.11	281.11	281.11	281.11	281.11	0	0
1205.93	280.752	353.354	353.354	353.354	353.354	353.354	353.354	353.354	0	0
1206.13	280.552	120.898	120.898	120.898	120.898	120.898	120.898	120.898	0	0
1206.33	280.352	234.292	234.292	234.292	234.292	234.292	234.292	234.292	0	0
1206.53	280.152	281.964	281.964	281.964	281.964	281.964	281.964	281.964	0	0
1206.73	279.952	218.588	218.588	218.588	218.588	218.588	218.588	218.588	0	0
1206.93	279.752	183.288	183.288	183.288	183.288	183.288	183.288	183.288	0	0
1207.13	279.552	190.615	190.615	190.615	190.615	190.615	190.615	190.615	0	0
1207.33	279.352	347.24	347.24	347.24	347.24	347.24	347.24	347.24	0	0
1207.53	279.152	223.03	223.03	223.03	223.03	223.03	223.03	223.03	0	0
1207.73	278.952	211.534	211.534	211.534	211.534	211.534	211.534	211.534	0	0
1207.93	278.752	163.602	163.602	163.602	163.602	163.602	163.602	163.602	0	0