File: XPS/XPS/250418_195-2.1.csv
C1s Scan
	Characteristic Energy eV	1486.68	Acquisition Time s	0.05
KE_C1s Scan	BE_C1s Scan	CPS_C1s Scan	C-C/C-H_1_C1s Scan	C-O_2_C1s Scan	C=O_3_C1s Scan	O-C=O_4_C1s Scan	Background_C1s Scan	Envelope_C1s Scan	Normalised_Residual_C1s Scan	Residual_C1s Scan
1188.96	297.718	903.304	903.304	903.304	903.304	903.304	903.304	903.304	0	0
1189.16	297.518	1019.08	1019.08	1019.08	1019.08	1019.08	1019.08	1019.08	0	0
1189.36	297.318	1005.9	1005.9	1005.9	1005.9	1005.9	1005.9	1005.9	0	0
1189.56	297.118	802.3	802.3	802.3	802.3	802.3	802.3	802.3	0	0
1189.76	296.918	1243.28	1243.28	1243.28	1243.28	1243.28	1243.28	1243.28	0	0
1189.96	296.718	875.162	875.162	875.162	875.162	875.162	875.162	875.162	0	0
1190.16	296.518	746.566	746.566	746.566	746.566	746.566	746.566	746.566	0	0
1190.36	296.318	752.872	752.872	752.872	752.872	752.872	752.872	752.872	0	0
1190.56	296.118	811.242	811.242	811.242	811.242	811.242	811.242	811.242	0	0
1190.76	295.918	891.74	891.74	891.74	891.74	891.74	891.74	891.74	0	0
1190.96	295.718	769.42	769.42	769.42	769.42	769.42	769.42	769.42	0	0
1191.16	295.518	769.852	769.852	769.852	769.852	769.852	769.852	769.852	0	0
1191.36	295.318	511.102	511.102	511.102	511.102	511.102	511.102	511.102	0	0
1191.56	295.118	836.054	836.054	836.054	836.054	836.054	836.054	836.054	0	0
1191.76	294.918	531.768	531.768	531.768	531.768	531.768	531.768	531.768	0	0
1191.96	294.718	687.03	687.03	687.03	687.03	687.03	687.03	687.03	0	0
1192.16	294.518	629.626	629.626	629.626	629.626	629.626	629.626	629.626	0	0
1192.36	294.318	546.858	546.858	546.858	546.858	546.858	546.858	546.858	0	0
1192.56	294.118	540.272	540.272	540.272	540.272	540.272	540.272	540.272	0	0
1192.76	293.918	488.548	488.548	488.548	488.548	488.548	488.548	488.548	0	0
1192.96	293.718	603.836	603.836	603.836	603.836	603.836	603.836	603.836	0	0
1193.16	293.518	340.334	340.334	340.334	340.334	340.334	340.334	340.334	0	0
1193.36	293.318	542.172	542.172	542.172	542.172	542.172	542.172	542.172	0	0
1193.56	293.118	342.68	342.68	342.68	342.68	342.68	342.68	342.68	0	0
1193.76	292.918	545.09	545.09	545.09	545.09	545.091	545.09	545.091	0	0
1193.96	292.718	561.96	561.96	561.96	561.96	561.963	561.96	561.963	0	0
1194.16	292.518	265.062	265.062	265.062	265.062	265.072	265.062	265.072	0	0
1194.36	292.318	333.012	333.012	333.012	333.012	333.042	333.012	333.042	0	0
1194.56	292.118	276.462	276.462	276.462	276.462	276.546	276.462	276.547	0	0
1194.76	291.918	261.84	261.84	261.84	261.841	262.069	261.84	262.07	0	0
1194.96	291.718	300.194	300.194	300.194	300.199	300.783	300.194	300.787	0	0
1195.16	291.518	347.546	347.546	347.546	347.561	348.982	347.546	348.996	0	0
1195.36	291.318	267.314	267.314	267.314	267.357	270.636	267.314	270.679	0	0
1195.56	291.118	230.354	230.354	230.354	230.474	237.647	230.354	237.767	0	0
1195.76	290.918	180.941	196.419	196.419	196.734	211.67	196.419	211.985	0.516057	1.55221
1195.96	290.718	172.45	196.429	196.429	197.219	226.673	196.429	227.463	0.936746	2.75067
1196.16	290.518	278.88	196.443	196.443	198.325	253.27	196.443	255.153	-0.317704	-1.18636
1196.36	290.318	358.924	196.465	196.466	200.721	297.533	196.465	301.79	-0.674344	-2.85672
1196.56	290.118	265.318	196.474	196.479	205.601	366.325	196.474	375.457	1.51197	5.50694
1196.76	289.918	609.132	196.542	196.559	215.113	465.744	196.542	484.332	-1.13069	-6.24002
1196.96	289.718	630.414	196.614	196.665	232.494	596.966	196.614	632.896	0.0221067	0.124114
1197.16	289.518	899.002	196.748	196.898	262.509	752.391	196.748	818.302	-0.601837	-4.03501
1197.36	289.318	1310.93	196.918	197.337	310.88	912.329	196.918	1026.71	-1.75531	-14.2111
1197.56	289.118	1257.48	197.145	198.257	383.477	1046.34	197.145	1233.78	-0.14944	-1.18496
1197.76	288.918	1366.4	197.38	200.18	483.91	1121.3	197.38	1410.63	0.267549	2.21145
1197.96	288.718	1771.09	197.705	204.391	610.314	1116.15	197.705	1535.45	-1.25205	-11.7822
1198.16	288.518	1505.23	197.97	213.12	751.087	1032.7	197.97	1600.96	0.551787	4.78693
1198.36	288.318	1424.33	198.268	230.899	883.857	894.226	198.268	1612.44	1.11454	9.40563
1198.56	288.118	1582.34	198.572	265.399	979.695	733.79	198.572	1581.74	-0.00339481	-0.0301961
1198.76	287.918	1582.9	198.893	328.609	1013.4	580.977	198.89	1525.21	-0.324277	-2.88488
1198.96	287.718	1415.68	199.199	437.683	975.188	454.089	199.179	1468.62	0.314604	2.64687
1199.16	287.518	1255.87	199.539	614.275	875.765	359.122	199.432	1450.41	1.2275	9.72699
1199.36	287.318	1379.35	200.223	881.071	741.877	293.983	199.704	1518.04	0.83506	6.93488
1199.56	287.118	1688.34	202.268	1253.78	602.202	252.599	200.008	1710.82	0.122358	1.12421
1199.76	286.918	2079.38	209.283	1726.12	478.208	228.179	200.405	2040.58	-0.190259	-1.93998
1199.96	286.718	2770.4	232.381	2257.82	380.557	214.86	200.919	2482.86	-1.22154	-14.3769
1200.16	286.518	2645.18	301.791	2767.62	310.88	208.135	201.497	2983.93	1.47279	16.9377
1200.36	286.318	3617.94	489.777	3146.78	265.055	205.164	202.165	3500.28	-0.437413	-5.88311
1200.56	286.118	3366.56	944.242	3293.88	237.126	204.204	202.92	4070.69	2.7136	35.2066
1200.76	285.918	5097.54	1917.1	3168.5	221.532	204.431	203.909	4899.83	-0.619194	-9.88536
1200.96	285.718	6247.88	3738.1	2807.47	213.801	205.398	205.196	6349.17	0.286553	5.06473
1201.16	285.518	8440.82	6649.27	2306.57	210.923	207.001	206.927	8752.98	0.759754	15.6081
1201.36	285.318	11623.6	10444.8	1775.68	211.045	209.307	209.281	12013	0.807543	19.468
1201.56	285.118	14971.1	14136.4	1300.22	213.097	212.367	212.358	15225	0.463886	12.6918
1201.76	284.918	16234.3	16160.9	923.459	216.265	215.974	215.972	16868.7	1.11332	31.7191
1201.96	284.718	15681.3	15444.6	652.195	219.575	219.465	219.464	15877.4	0.35024	9.80712
1202.16	284.518	13102.2	12382.9	472.177	222.498	222.459	222.459	12632.6	-0.917408	-23.4812
1202.36	284.318	8658	8465.69	360.711	224.472	224.458	224.458	8601.96	-0.134679	-2.80216
1202.56	284.118	4722.8	5054.55	296.175	225.647	225.643	225.643	5125.09	1.30894	20.1143
1202.76	283.918	2722.96	2711.62	260.961	226.296	226.294	226.294	2746.29	0.0999667	1.16644
1202.96	283.718	1586.81	1362.77	242.814	226.65	226.65	226.65	1378.94	-1.16689	-10.3939
1203.16	283.518	1061.14	691.258	233.992	226.843	226.843	226.843	698.408	-2.48992	-18.1366
1203.36	283.318	710.448	397.353	229.986	226.987	226.987	226.987	400.352	-2.60145	-15.5048
1203.56	283.118	513.522	283.439	228.268	227.072	227.072	227.072	284.635	-2.25853	-11.4443
1203.76	282.918	263.476	243.91	227.562	227.108	227.108	227.108	244.364	-0.263277	-0.955581
1203.96	282.718	436.058	231.648	227.303	227.14	227.14	227.14	231.811	-2.1871	-10.2123
1204.16	282.518	320.662	228.268	227.236	227.18	227.18	227.18	228.324	-1.15303	-4.6169
1204.36	282.318	253.894	227.427	227.209	227.191	227.191	227.191	227.445	-0.371163	-1.32244
1204.56	282.118	193.774	227.26	227.22	227.215	227.215	227.215	227.266	0.537988	1.67458
1204.76	281.918	344.27	227.249	227.243	227.241	227.241	227.241	227.251	-1.41024	-5.85095
1204.96	281.718	107.519	107.52	107.519	107.519	107.519	107.519	107.52	0	0
1205.16	281.518	122.791	122.792	122.792	122.791	122.791	122.791	122.792	0	0
1205.36	281.318	275.336	275.336	275.336	275.336	275.336	275.336	275.336	0	0
1205.56	281.118	260.91	260.91	260.91	260.91	260.91	260.91	260.91	0	0
1205.76	280.918	114.336	114.336	114.336	114.336	114.336	114.336	114.336	0	0
1205.96	280.718	168.277	168.277	168.277	168.277	168.277	168.277	168.277	0	0
1206.16	280.518	123.732	123.732	123.732	123.732	123.732	123.732	123.732	0	0
1206.36	280.318	184.566	184.566	184.566	184.566	184.566	184.566	184.566	0	0
1206.56	280.118	110.404	110.404	110.404	110.404	110.404	110.404	110.404	0	0
1206.76	279.918	111.339	111.339	111.339	111.339	111.339	111.339	111.339	0	0
1206.96	279.718	110.674	110.674	110.674	110.674	110.674	110.674	110.674	0	0
1207.16	279.518	107.797	107.797	107.797	107.797	107.797	107.797	107.797	0	0
1207.36	279.318	106.275	106.275	106.275	106.275	106.275	106.275	106.275	0	0
1207.56	279.118	79.0718	79.0718	79.0718	79.0718	79.0718	79.0718	79.0718	0	0
1207.76	278.918	114.613	114.613	114.613	114.613	114.613	114.613	114.613	0	0
1207.96	278.718	97.502	97.502	97.502	97.502	97.502	97.502	97.502	0	0